# E (eV) pdos(E) 
  0.000  0.379E+01
  0.010  0.372E+01
  0.020  0.404E+01
  0.030  0.106E+02
  0.040  0.105E+02
  0.050  0.966E+01
  0.060  0.482E+01
  0.070  0.266E+01
  0.080  0.215E+01
  0.090  0.394E+01
  0.100  0.480E+01
  0.110  0.879E+01
  0.120  0.654E+01
  0.130  0.411E+01
  0.140  0.270E+01
  0.150  0.172E+01
  0.160  0.112E+01
  0.170  0.694E+00
  0.180  0.233E+00
  0.190  0.229E-01
  0.200  0.396E-04
  0.210  0.000E+00
  0.220  0.000E+00
  0.230  0.000E+00
  0.240  0.000E+00
  0.250  0.000E+00
  0.260  0.000E+00
  0.270  0.000E+00
  0.280  0.000E+00
  0.290  0.000E+00
  0.300  0.000E+00
  0.310  0.000E+00
  0.320  0.167E-05
  0.330  0.681E-03
  0.340  0.652E-02
  0.350  0.237E-01
  0.360  0.539E-01
  0.370  0.967E-01
  0.380  0.152E+00
  0.390  0.220E+00
  0.400  0.300E+00
  0.410  0.391E+00
  0.420  0.495E+00
  0.430  0.609E+00
  0.440  0.735E+00
  0.450  0.872E+00
  0.460  0.105E+01
  0.470  0.152E+01
  0.480  0.234E+01
  0.490  0.302E+01
  0.500  0.356E+01
  0.510  0.393E+01
  0.520  0.418E+01
  0.530  0.430E+01
  0.540  0.430E+01
  0.550  0.415E+01
  0.560  0.394E+01
  0.570  0.396E+01
  0.580  0.419E+01
  0.590  0.444E+01
  0.600  0.472E+01
  0.610  0.496E+01
  0.620  0.525E+01
  0.630  0.554E+01
  0.640  0.585E+01
  0.650  0.615E+01
  0.660  0.646E+01
  0.670  0.676E+01
  0.680  0.716E+01
  0.690  0.840E+01
  0.700  0.106E+02
  0.710  0.120E+02
  0.720  0.120E+02
  0.730  0.120E+02
  0.740  0.120E+02
  0.750  0.122E+02
  0.760  0.130E+02
  0.770  0.133E+02
  0.780  0.122E+02
  0.790  0.123E+02
  0.800  0.125E+02
  0.810  0.127E+02
  0.820  0.129E+02
  0.830  0.131E+02
  0.840  0.133E+02
  0.850  0.135E+02
  0.860  0.137E+02
  0.870  0.138E+02
  0.880  0.144E+02
  0.890  0.156E+02
  0.900  0.167E+02
  0.910  0.182E+02
  0.920  0.202E+02
  0.930  0.215E+02
  0.940  0.222E+02
  0.950  0.226E+02
  0.960  0.222E+02
  0.970  0.213E+02
  0.980  0.231E+02
  0.990  0.267E+02
  1.000  0.316E+02
  1.010  0.384E+02
  1.020  0.392E+02
  1.030  0.653E+02
  1.040  0.777E+02
  1.050  0.728E+02
  1.060  0.795E+02
  1.070  0.616E+02
  1.080  0.399E+02
  1.090  0.364E+02
  1.100  0.322E+02
  1.110  0.273E+02
  1.120  0.216E+02
  1.130  0.154E+02
  1.140  0.115E+02
  1.150  0.151E+02
  1.160  0.219E+02
  1.170  0.263E+02
  1.180  0.272E+02
  1.190  0.264E+02
  1.200  0.267E+02
  1.210  0.263E+02
  1.220  0.261E+02
  1.230  0.263E+02
  1.240  0.266E+02
  1.250  0.270E+02
  1.260  0.278E+02
  1.270  0.283E+02
  1.280  0.282E+02
  1.290  0.277E+02
  1.300  0.268E+02
  1.310  0.254E+02
  1.320  0.235E+02
  1.330  0.213E+02
  1.340  0.198E+02
  1.350  0.184E+02
  1.360  0.173E+02
  1.370  0.166E+02
  1.380  0.159E+02
  1.390  0.152E+02
  1.400  0.146E+02
  1.410  0.140E+02
  1.420  0.136E+02
  1.430  0.134E+02
  1.440  0.137E+02
  1.450  0.141E+02
  1.460  0.145E+02
  1.470  0.148E+02
  1.480  0.149E+02
  1.490  0.150E+02
  1.500  0.150E+02
  1.510  0.149E+02
  1.520  0.146E+02
  1.530  0.143E+02
  1.540  0.139E+02
  1.550  0.134E+02
  1.560  0.128E+02
  1.570  0.122E+02
  1.580  0.116E+02
  1.590  0.109E+02
  1.600  0.103E+02
  1.610  0.959E+01
  1.620  0.909E+01
  1.630  0.882E+01
  1.640  0.863E+01
  1.650  0.860E+01
  1.660  0.876E+01
  1.670  0.899E+01
  1.680  0.937E+01
  1.690  0.980E+01
  1.700  0.104E+02
  1.710  0.120E+02
  1.720  0.129E+02
  1.730  0.127E+02
  1.740  0.117E+02
  1.750  0.101E+02
  1.760  0.844E+01
  1.770  0.699E+01
  1.780  0.620E+01
  1.790  0.617E+01
  1.800  0.652E+01
  1.810  0.705E+01
  1.820  0.770E+01
  1.830  0.829E+01
  1.840  0.882E+01
  1.850  0.927E+01
  1.860  0.963E+01
  1.870  0.993E+01
  1.880  0.101E+02
  1.890  0.103E+02
  1.900  0.104E+02
  1.910  0.103E+02
  1.920  0.103E+02
  1.930  0.101E+02
  1.940  0.984E+01
  1.950  0.952E+01
  1.960  0.918E+01
  1.970  0.883E+01
  1.980  0.858E+01
  1.990  0.834E+01
  2.000  0.812E+01
  2.010  0.789E+01
  2.020  0.772E+01
  2.030  0.756E+01
  2.040  0.740E+01
  2.050  0.727E+01
  2.060  0.715E+01
  2.070  0.705E+01
  2.080  0.701E+01
  2.090  0.699E+01
  2.100  0.700E+01
  2.110  0.704E+01
  2.120  0.709E+01
  2.130  0.714E+01
  2.140  0.720E+01
  2.150  0.725E+01
  2.160  0.730E+01
  2.170  0.734E+01
  2.180  0.740E+01
  2.190  0.744E+01
  2.200  0.748E+01
  2.210  0.751E+01
  2.220  0.756E+01
  2.230  0.747E+01
  2.240  0.792E+01
  2.250  0.877E+01
  2.260  0.102E+02
  2.270  0.898E+01
  2.280  0.841E+01
  2.290  0.827E+01
  2.300  0.802E+01
  2.310  0.768E+01
  2.320  0.728E+01
  2.330  0.689E+01
  2.340  0.672E+01
  2.350  0.665E+01
  2.360  0.658E+01
  2.370  0.651E+01
  2.380  0.645E+01
  2.390  0.639E+01
  2.400  0.631E+01
  2.410  0.627E+01
  2.420  0.620E+01
  2.430  0.613E+01
  2.440  0.610E+01
  2.450  0.614E+01
  2.460  0.661E+01
  2.470  0.750E+01
  2.480  0.778E+01
  2.490  0.824E+01
  2.500  0.874E+01
  2.510  0.935E+01
  2.520  0.101E+02
  2.530  0.108E+02
  2.540  0.114E+02
  2.550  0.120E+02
  2.560  0.126E+02
  2.570  0.131E+02
  2.580  0.136E+02
  2.590  0.140E+02
  2.600  0.145E+02
  2.610  0.149E+02
  2.620  0.157E+02
  2.630  0.175E+02
  2.640  0.196E+02
  2.650  0.217E+02
  2.660  0.236E+02
  2.670  0.252E+02
  2.680  0.265E+02
  2.690  0.286E+02
  2.700  0.310E+02
  2.710  0.350E+02
  2.720  0.421E+02
  2.730  0.546E+02
  2.740  0.639E+02
  2.750  0.857E+02
  2.760  0.477E+02
  2.770  0.274E+02
  2.780  0.228E+02
  2.790  0.208E+02
  2.800  0.191E+02
  2.810  0.177E+02
  2.820  0.174E+02
  2.830  0.255E+02
  2.840  0.320E+02
  2.850  0.469E+02
  2.860  0.313E+02
  2.870  0.260E+02
  2.880  0.194E+02
  2.890  0.164E+02
  2.900  0.165E+02
  2.910  0.166E+02
  2.920  0.168E+02
  2.930  0.169E+02
  2.940  0.164E+02
  2.950  0.162E+02
  2.960  0.171E+02
  2.970  0.187E+02
  2.980  0.206E+02
  2.990  0.227E+02
  3.000  0.252E+02
  3.010  0.287E+02
  3.020  0.315E+02
  3.030  0.334E+02
  3.040  0.346E+02
  3.050  0.359E+02
  3.060  0.371E+02
  3.070  0.384E+02
  3.080  0.395E+02
  3.090  0.406E+02
  3.100  0.415E+02
  3.110  0.437E+02
  3.120  0.389E+02
  3.130  0.340E+02
  3.140  0.310E+02
  3.150  0.300E+02
  3.160  0.293E+02
  3.170  0.287E+02
  3.180  0.279E+02
  3.190  0.269E+02
  3.200  0.260E+02
  3.210  0.257E+02
  3.220  0.264E+02
  3.230  0.268E+02
  3.240  0.269E+02
  3.250  0.261E+02
  3.260  0.255E+02
  3.270  0.262E+02
  3.280  0.311E+02
  3.290  0.362E+02
  3.300  0.377E+02
  3.310  0.390E+02
  3.320  0.415E+02
  3.330  0.446E+02
  3.340  0.451E+02
  3.350  0.448E+02
  3.360  0.438E+02
  3.370  0.430E+02
  3.380  0.425E+02
  3.390  0.417E+02
  3.400  0.438E+02
  3.410  0.410E+02
  3.420  0.409E+02
  3.430  0.410E+02
  3.440  0.417E+02
  3.450  0.438E+02
  3.460  0.460E+02
  3.470  0.463E+02
  3.480  0.456E+02
  3.490  0.448E+02
  3.500  0.443E+02
  3.510  0.441E+02
  3.520  0.443E+02
  3.530  0.452E+02
  3.540  0.462E+02
  3.550  0.470E+02
  3.560  0.483E+02
  3.570  0.504E+02
  3.580  0.500E+02
  3.590  0.449E+02
  3.600  0.415E+02
  3.610  0.402E+02
  3.620  0.399E+02
  3.630  0.402E+02
  3.640  0.408E+02
  3.650  0.408E+02
  3.660  0.411E+02
  3.670  0.447E+02
  3.680  0.425E+02
  3.690  0.368E+02
  3.700  0.355E+02
  3.710  0.342E+02
  3.720  0.335E+02
  3.730  0.333E+02
  3.740  0.336E+02
  3.750  0.340E+02
  3.760  0.355E+02
  3.770  0.402E+02
  3.780  0.404E+02
  3.790  0.509E+02
  3.800  0.423E+02
  3.810  0.548E+02
  3.820  0.697E+02
  3.830  0.666E+02
  3.840  0.761E+02
  3.850  0.594E+02
  3.860  0.575E+02
  3.870  0.557E+02
  3.880  0.541E+02
  3.890  0.527E+02
  3.900  0.520E+02
  3.910  0.524E+02
  3.920  0.485E+02
  3.930  0.418E+02
  3.940  0.359E+02
  3.950  0.328E+02
  3.960  0.309E+02
  3.970  0.295E+02
  3.980  0.290E+02
  3.990  0.288E+02
  4.000  0.289E+02
  4.010  0.294E+02
  4.020  0.302E+02
  4.030  0.315E+02
  4.040  0.332E+02
  4.050  0.353E+02
  4.060  0.382E+02
  4.070  0.407E+02
  4.080  0.427E+02
  4.090  0.444E+02
  4.100  0.462E+02
  4.110  0.482E+02
  4.120  0.514E+02
  4.130  0.541E+02
  4.140  0.557E+02
  4.150  0.589E+02
  4.160  0.550E+02
  4.170  0.503E+02
  4.180  0.487E+02
  4.190  0.465E+02
  4.200  0.445E+02
  4.210  0.435E+02
  4.220  0.446E+02
  4.230  0.436E+02
  4.240  0.406E+02
  4.250  0.406E+02
  4.260  0.412E+02
  4.270  0.424E+02
  4.280  0.445E+02
  4.290  0.468E+02
  4.300  0.504E+02
  4.310  0.552E+02
  4.320  0.634E+02
  4.330  0.682E+02
  4.340  0.705E+02
  4.350  0.707E+02
  4.360  0.663E+02
  4.370  0.522E+02
  4.380  0.429E+02
  4.390  0.389E+02
  4.400  0.373E+02
  4.410  0.378E+02
  4.420  0.382E+02
  4.430  0.370E+02
  4.440  0.325E+02
  4.450  0.319E+02
  4.460  0.317E+02
  4.470  0.317E+02
  4.480  0.321E+02
  4.490  0.327E+02
  4.500  0.330E+02
  4.510  0.331E+02
  4.520  0.327E+02
  4.530  0.333E+02
  4.540  0.344E+02
  4.550  0.353E+02
  4.560  0.362E+02
  4.570  0.371E+02
  4.580  0.380E+02
  4.590  0.402E+02
  4.600  0.465E+02
  4.610  0.497E+02
  4.620  0.538E+02
  4.630  0.530E+02
  4.640  0.547E+02
  4.650  0.592E+02
  4.660  0.598E+02
  4.670  0.576E+02
  4.680  0.514E+02
  4.690  0.465E+02
  4.700  0.470E+02
  4.710  0.454E+02
  4.720  0.489E+02
  4.730  0.570E+02
  4.740  0.629E+02
  4.750  0.690E+02
  4.760  0.609E+02
  4.770  0.481E+02
  4.780  0.399E+02
  4.790  0.353E+02
  4.800  0.325E+02
  4.810  0.305E+02
  4.820  0.291E+02
  4.830  0.280E+02
  4.840  0.273E+02
  4.850  0.267E+02
  4.860  0.263E+02
  4.870  0.259E+02
  4.880  0.254E+02
  4.890  0.250E+02
  4.900  0.245E+02
  4.910  0.241E+02
  4.920  0.239E+02
  4.930  0.241E+02
  4.940  0.259E+02
  4.950  0.288E+02
  4.960  0.294E+02
  4.970  0.272E+02
  4.980  0.245E+02
  4.990  0.244E+02
  5.000  0.242E+02
  5.010  0.238E+02
  5.020  0.234E+02
  5.030  0.229E+02
  5.040  0.228E+02
  5.050  0.237E+02
  5.060  0.219E+02
  5.070  0.172E+02
  5.080  0.186E+02
  5.090  0.229E+02
  5.100  0.223E+02
  5.110  0.209E+02
  5.120  0.193E+02
  5.130  0.176E+02
  5.140  0.156E+02
  5.150  0.133E+02
  5.160  0.114E+02
  5.170  0.103E+02
  5.180  0.991E+01
  5.190  0.981E+01
  5.200  0.986E+01
  5.210  0.989E+01
  5.220  0.999E+01
  5.230  0.106E+02
  5.240  0.124E+02
  5.250  0.159E+02
  5.260  0.196E+02
  5.270  0.209E+02
  5.280  0.211E+02
  5.290  0.244E+02
  5.300  0.261E+02
  5.310  0.252E+02
  5.320  0.210E+02
  5.330  0.202E+02
  5.340  0.179E+02
  5.350  0.156E+02
  5.360  0.135E+02
  5.370  0.116E+02
  5.380  0.998E+01
  5.390  0.869E+01
  5.400  0.769E+01
  5.410  0.689E+01
  5.420  0.613E+01
  5.430  0.547E+01
  5.440  0.495E+01
  5.450  0.475E+01
  5.460  0.515E+01
  5.470  0.544E+01
  5.480  0.543E+01
  5.490  0.512E+01
  5.500  0.449E+01
  5.510  0.355E+01
  5.520  0.229E+01
  5.530  0.101E+01
  5.540  0.496E+00
  5.550  0.239E+00
  5.560  0.776E-01
  5.570  0.962E-02
  5.580  0.788E-03
  5.590  0.101E-03
  5.600  0.000E+00
  5.610  0.000E+00
  5.620  0.000E+00
  5.630  0.000E+00
  5.640  0.000E+00
  5.650  0.000E+00
  5.660  0.000E+00
  5.670  0.000E+00
  5.680  0.000E+00
  5.690  0.000E+00
  5.700  0.000E+00
  5.710  0.000E+00
  5.720  0.000E+00
  5.730  0.000E+00
  5.740  0.000E+00
  5.750  0.000E+00
  5.760  0.000E+00
  5.770  0.000E+00
  5.780  0.000E+00
  5.790  0.000E+00
  5.800  0.000E+00
  5.810  0.000E+00
  5.820  0.000E+00
  5.830  0.000E+00
  5.840  0.000E+00
  5.850  0.000E+00
  5.860  0.000E+00
  5.870  0.000E+00
  5.880  0.000E+00
  5.890  0.000E+00
  5.900  0.000E+00
  5.910  0.000E+00
  5.920  0.000E+00
  5.930  0.000E+00
  5.940  0.000E+00
  5.950  0.000E+00
  5.960  0.000E+00
  5.970  0.000E+00
  5.980  0.000E+00
  5.990  0.000E+00
  6.000  0.000E+00
  6.010  0.000E+00
  6.020  0.000E+00
  6.030  0.000E+00
  6.040  0.000E+00
  6.050  0.000E+00
  6.060  0.000E+00
  6.070  0.000E+00
  6.080  0.000E+00
  6.090  0.000E+00
  6.100  0.000E+00
  6.110  0.000E+00
  6.120  0.000E+00
  6.130  0.000E+00
  6.140  0.000E+00
  6.150  0.000E+00
  6.160  0.000E+00
  6.170  0.000E+00
  6.180  0.000E+00
  6.190  0.000E+00
  6.200  0.000E+00
  6.210  0.000E+00
  6.220  0.000E+00
  6.230  0.000E+00
  6.240  0.000E+00
  6.250  0.000E+00
  6.260  0.000E+00
  6.270  0.000E+00
  6.280  0.000E+00
  6.290  0.000E+00
  6.300  0.000E+00
  6.310  0.000E+00
  6.320  0.000E+00
  6.330  0.000E+00
  6.340  0.000E+00
  6.350  0.000E+00
  6.360  0.000E+00
  6.370  0.000E+00
  6.380  0.000E+00
  6.390  0.000E+00
  6.400  0.000E+00
  6.410  0.000E+00
  6.420  0.000E+00
  6.430  0.000E+00
  6.440  0.000E+00
  6.450  0.000E+00
  6.460  0.000E+00
  6.470  0.000E+00
  6.480  0.000E+00
  6.490  0.000E+00
  6.500  0.000E+00
  6.510  0.000E+00
  6.520  0.000E+00
  6.530  0.000E+00
  6.540  0.000E+00
  6.550  0.000E+00
  6.560  0.000E+00
  6.570  0.000E+00
  6.580  0.000E+00
  6.590  0.000E+00
  6.600  0.000E+00
  6.610  0.000E+00
  6.620  0.000E+00
  6.630  0.000E+00
  6.640  0.000E+00
  6.650  0.000E+00
  6.660  0.000E+00
  6.670  0.000E+00
  6.680  0.000E+00
  6.690  0.000E+00
  6.700  0.000E+00
  6.710  0.000E+00
  6.720  0.000E+00
  6.730  0.000E+00
  6.740  0.000E+00
  6.750  0.000E+00
  6.760  0.000E+00
  6.770  0.000E+00
  6.780  0.000E+00
  6.790  0.000E+00
  6.800  0.000E+00
  6.810  0.000E+00
  6.820  0.000E+00
  6.830  0.000E+00
  6.840  0.000E+00
  6.850  0.000E+00
  6.860  0.000E+00
  6.870  0.000E+00
  6.880  0.000E+00
  6.890  0.000E+00
  6.900  0.000E+00
  6.910  0.000E+00
  6.920  0.000E+00
  6.930  0.000E+00
  6.940  0.000E+00
  6.950  0.000E+00
  6.960  0.000E+00
  6.970  0.000E+00
  6.980  0.000E+00
  6.990  0.000E+00
  7.000  0.000E+00
  7.010  0.000E+00
  7.020  0.000E+00
  7.030  0.000E+00
  7.040  0.000E+00
  7.050  0.000E+00
  7.060  0.000E+00
  7.070  0.000E+00
  7.080  0.000E+00
  7.090  0.000E+00
  7.100  0.000E+00
  7.110  0.000E+00
  7.120  0.000E+00
  7.130  0.000E+00
  7.140  0.000E+00
  7.150  0.000E+00
  7.160  0.000E+00
  7.170  0.000E+00
  7.180  0.000E+00
  7.190  0.000E+00
  7.200  0.000E+00
  7.210  0.000E+00
  7.220  0.000E+00
  7.230  0.000E+00
  7.240  0.000E+00
  7.250  0.000E+00
  7.260  0.000E+00
  7.270  0.000E+00
  7.280  0.000E+00
  7.290  0.000E+00
  7.300  0.000E+00
  7.310  0.000E+00
  7.320  0.000E+00
  7.330  0.000E+00
  7.340  0.000E+00
  7.350  0.000E+00
  7.360  0.000E+00
  7.370  0.000E+00
  7.380  0.000E+00
  7.390  0.000E+00
  7.400  0.000E+00
  7.410  0.000E+00
  7.420  0.121E-05
  7.430  0.315E-04
  7.440  0.103E-03
  7.450  0.217E-03
  7.460  0.445E-03
  7.470  0.834E-03
  7.480  0.139E-02
  7.490  0.211E-02
  7.500  0.301E-02
  7.510  0.407E-02
  7.520  0.531E-02
  7.530  0.673E-02
  7.540  0.831E-02
  7.550  0.101E-01
  7.560  0.121E-01
  7.570  0.142E-01
  7.580  0.166E-01
  7.590  0.191E-01
  7.600  0.218E-01
  7.610  0.248E-01
  7.620  0.279E-01
  7.630  0.312E-01
  7.640  0.348E-01
  7.650  0.385E-01
  7.660  0.425E-01
  7.670  0.466E-01
  7.680  0.510E-01
  7.690  0.557E-01
  7.700  0.605E-01
  7.710  0.654E-01
  7.720  0.708E-01
  7.730  0.763E-01
  7.740  0.819E-01
  7.750  0.881E-01
  7.760  0.943E-01
  7.770  0.101E+00
  7.780  0.107E+00
  7.790  0.114E+00
  7.800  0.121E+00
  7.810  0.129E+00
  7.820  0.136E+00
  7.830  0.144E+00
  7.840  0.151E+00
  7.850  0.160E+00
  7.860  0.169E+00
  7.870  0.180E+00
  7.880  0.192E+00
  7.890  0.203E+00
  7.900  0.213E+00
  7.910  0.223E+00
  7.920  0.233E+00
  7.930  0.242E+00
  7.940  0.251E+00
  7.950  0.260E+00
  7.960  0.268E+00
  7.970  0.277E+00
  7.980  0.285E+00
  7.990  0.293E+00
  8.000  0.301E+00
  8.010  0.308E+00
  8.020  0.316E+00
  8.030  0.323E+00
  8.040  0.330E+00
  8.050  0.337E+00
  8.060  0.344E+00
  8.070  0.351E+00
  8.080  0.357E+00
  8.090  0.364E+00
  8.100  0.370E+00
  8.110  0.376E+00
  8.120  0.379E+00
  8.130  0.381E+00
  8.140  0.382E+00
  8.150  0.381E+00
  8.160  0.382E+00
  8.170  0.384E+00
  8.180  0.387E+00
  8.190  0.390E+00
  8.200  0.392E+00
  8.210  0.395E+00
  8.220  0.398E+00
  8.230  0.401E+00
  8.240  0.404E+00
  8.250  0.408E+00
  8.260  0.413E+00
  8.270  0.418E+00
  8.280  0.424E+00
  8.290  0.431E+00
  8.300  0.438E+00
  8.310  0.447E+00
  8.320  0.457E+00
  8.330  0.468E+00
  8.340  0.479E+00
  8.350  0.491E+00
  8.360  0.502E+00
  8.370  0.513E+00
  8.380  0.525E+00
  8.390  0.536E+00
  8.400  0.548E+00
  8.410  0.559E+00
  8.420  0.572E+00
  8.430  0.584E+00
  8.440  0.597E+00
  8.450  0.608E+00
  8.460  0.622E+00
  8.470  0.636E+00
  8.480  0.650E+00
  8.490  0.664E+00
  8.500  0.679E+00
  8.510  0.693E+00
  8.520  0.708E+00
  8.530  0.725E+00
  8.540  0.742E+00
  8.550  0.759E+00
  8.560  0.774E+00
  8.570  0.792E+00
  8.580  0.810E+00
  8.590  0.828E+00
  8.600  0.848E+00
  8.610  0.866E+00
  8.620  0.886E+00
  8.630  0.905E+00
  8.640  0.926E+00
  8.650  0.947E+00
  8.660  0.968E+00
  8.670  0.989E+00
  8.680  0.101E+01
  8.690  0.103E+01
  8.700  0.106E+01
  8.710  0.108E+01
  8.720  0.113E+01
  8.730  0.119E+01
  8.740  0.126E+01
  8.750  0.135E+01
  8.760  0.146E+01
  8.770  0.158E+01
  8.780  0.170E+01
  8.790  0.184E+01
  8.800  0.197E+01
  8.810  0.223E+01
  8.820  0.269E+01
  8.830  0.463E+01
  8.840  0.428E+01
  8.850  0.405E+01
  8.860  0.395E+01
  8.870  0.404E+01
  8.880  0.418E+01
  8.890  0.432E+01
  8.900  0.443E+01
  8.910  0.448E+01
  8.920  0.450E+01
  8.930  0.455E+01
  8.940  0.458E+01
  8.950  0.460E+01
  8.960  0.463E+01
  8.970  0.467E+01
  8.980  0.488E+01
  8.990  0.512E+01
  9.000  0.523E+01
  9.010  0.498E+01
  9.020  0.461E+01
  9.030  0.443E+01
  9.040  0.436E+01
  9.050  0.475E+01
  9.060  0.415E+01
  9.070  0.362E+01
  9.080  0.370E+01
  9.090  0.380E+01
  9.100  0.392E+01
  9.110  0.406E+01
  9.120  0.417E+01
  9.130  0.428E+01
  9.140  0.439E+01
  9.150  0.449E+01
  9.160  0.458E+01
  9.170  0.467E+01
  9.180  0.478E+01
  9.190  0.490E+01
  9.200  0.505E+01
  9.210  0.519E+01
  9.220  0.536E+01
  9.230  0.551E+01
  9.240  0.567E+01
  9.250  0.584E+01
  9.260  0.603E+01
  9.270  0.623E+01
  9.280  0.642E+01
  9.290  0.663E+01
  9.300  0.688E+01
  9.310  0.716E+01
  9.320  0.745E+01
  9.330  0.777E+01
  9.340  0.809E+01
  9.350  0.832E+01
  9.360  0.857E+01
  9.370  0.876E+01
  9.380  0.891E+01
  9.390  0.910E+01
  9.400  0.934E+01
  9.410  0.960E+01
  9.420  0.990E+01
  9.430  0.103E+02
  9.440  0.106E+02
  9.450  0.106E+02
  9.460  0.103E+02
  9.470  0.101E+02
  9.480  0.102E+02
  9.490  0.107E+02
  9.500  0.112E+02
  9.510  0.113E+02
  9.520  0.111E+02
  9.530  0.108E+02
  9.540  0.106E+02
  9.550  0.102E+02
  9.560  0.940E+01
  9.570  0.946E+01
  9.580  0.944E+01
  9.590  0.929E+01
  9.600  0.913E+01
  9.610  0.898E+01
  9.620  0.878E+01
  9.630  0.849E+01
  9.640  0.845E+01
  9.650  0.846E+01
  9.660  0.848E+01
  9.670  0.870E+01
  9.680  0.896E+01
  9.690  0.920E+01
  9.700  0.941E+01
  9.710  0.957E+01
  9.720  0.968E+01
  9.730  0.107E+02
  9.740  0.923E+01
  9.750  0.886E+01
  9.760  0.879E+01
  9.770  0.871E+01
  9.780  0.868E+01
  9.790  0.867E+01
  9.800  0.879E+01
  9.810  0.896E+01
  9.820  0.914E+01
  9.830  0.961E+01
  9.840  0.170E+02
  9.850  0.300E+02
  9.860  0.283E+02
  9.870  0.281E+02
  9.880  0.262E+02
  9.890  0.228E+02
  9.900  0.278E+02
  9.910  0.213E+02
  9.920  0.187E+02
  9.930  0.187E+02
  9.940  0.188E+02
  9.950  0.190E+02
  9.960  0.191E+02
  9.970  0.191E+02
  9.980  0.190E+02
  9.990  0.189E+02
 10.000  0.191E+02
 10.010  0.191E+02
 10.020  0.190E+02
 10.030  0.191E+02
 10.040  0.190E+02
 10.050  0.184E+02
 10.060  0.178E+02
 10.070  0.226E+02
 10.080  0.192E+02
 10.090  0.214E+02
 10.100  0.208E+02
 10.110  0.168E+02
 10.120  0.156E+02
 10.130  0.147E+02
 10.140  0.139E+02
 10.150  0.132E+02
 10.160  0.125E+02
 10.170  0.119E+02
 10.180  0.115E+02
 10.190  0.112E+02
 10.200  0.109E+02
 10.210  0.108E+02
 10.220  0.107E+02
 10.230  0.106E+02
 10.240  0.105E+02
 10.250  0.105E+02
 10.260  0.104E+02
 10.270  0.104E+02
 10.280  0.104E+02
 10.290  0.109E+02
 10.300  0.177E+02
 10.310  0.187E+02
 10.320  0.179E+02
 10.330  0.189E+02
 10.340  0.190E+02
 10.350  0.178E+02
 10.360  0.155E+02
 10.370  0.136E+02
 10.380  0.119E+02
 10.390  0.106E+02
 10.400  0.938E+01
 10.410  0.841E+01
 10.420  0.763E+01
 10.430  0.731E+01
 10.440  0.733E+01
 10.450  0.745E+01
 10.460  0.753E+01
 10.470  0.761E+01
 10.480  0.769E+01
 10.490  0.777E+01
 10.500  0.790E+01
 10.510  0.806E+01
 10.520  0.807E+01
 10.530  0.799E+01
 10.540  0.813E+01
 10.550  0.836E+01
 10.560  0.857E+01
 10.570  0.873E+01
 10.580  0.889E+01
 10.590  0.904E+01
 10.600  0.919E+01
 10.610  0.934E+01
 10.620  0.953E+01
 10.630  0.978E+01
 10.640  0.102E+02
 10.650  0.112E+02
 10.660  0.121E+02
 10.670  0.122E+02
 10.680  0.115E+02
 10.690  0.108E+02
 10.700  0.100E+02
 10.710  0.927E+01
 10.720  0.879E+01
 10.730  0.850E+01
 10.740  0.830E+01
 10.750  0.815E+01
 10.760  0.807E+01
 10.770  0.841E+01
 10.780  0.712E+01
 10.790  0.780E+01
 10.800  0.626E+01
 10.810  0.537E+01
 10.820  0.517E+01
 10.830  0.494E+01
 10.840  0.465E+01
 10.850  0.445E+01
 10.860  0.429E+01
 10.870  0.417E+01
 10.880  0.407E+01
 10.890  0.402E+01
 10.900  0.400E+01
 10.910  0.410E+01
 10.920  0.448E+01
 10.930  0.493E+01
 10.940  0.552E+01
 10.950  0.608E+01
 10.960  0.671E+01
 10.970  0.749E+01
 10.980  0.819E+01
 10.990  0.881E+01
 11.000  0.941E+01
 11.010  0.117E+02
 11.020  0.109E+02
 11.030  0.117E+02
 11.040  0.129E+02
 11.050  0.136E+02
 11.060  0.877E+01
 11.070  0.689E+01
 11.080  0.587E+01
 11.090  0.507E+01
 11.100  0.460E+01
 11.110  0.440E+01
 11.120  0.430E+01
 11.130  0.423E+01
 11.140  0.415E+01
 11.150  0.408E+01
 11.160  0.401E+01
 11.170  0.394E+01
 11.180  0.388E+01
 11.190  0.384E+01
 11.200  0.379E+01
 11.210  0.376E+01
 11.220  0.372E+01
 11.230  0.371E+01
 11.240  0.369E+01
 11.250  0.368E+01
 11.260  0.368E+01
 11.270  0.370E+01
 11.280  0.376E+01
 11.290  0.389E+01
 11.300  0.416E+01
 11.310  0.446E+01
 11.320  0.480E+01
 11.330  0.524E+01
 11.340  0.579E+01
 11.350  0.650E+01
 11.360  0.734E+01
 11.370  0.830E+01
 11.380  0.939E+01
 11.390  0.106E+02
 11.400  0.119E+02
 11.410  0.132E+02
 11.420  0.148E+02
 11.430  0.156E+02
 11.440  0.171E+02
 11.450  0.180E+02
 11.460  0.187E+02
 11.470  0.164E+02
 11.480  0.131E+02
 11.490  0.124E+02
 11.500  0.117E+02
 11.510  0.114E+02
 11.520  0.113E+02
 11.530  0.113E+02
 11.540  0.107E+02
 11.550  0.105E+02
 11.560  0.992E+01
 11.570  0.909E+01
 11.580  0.906E+01
 11.590  0.933E+01
 11.600  0.959E+01
 11.610  0.982E+01
 11.620  0.101E+02
 11.630  0.107E+02
 11.640  0.113E+02
 11.650  0.118E+02
 11.660  0.128E+02
 11.670  0.112E+02
 11.680  0.104E+02
 11.690  0.930E+01
 11.700  0.832E+01
 11.710  0.760E+01
 11.720  0.718E+01
 11.730  0.689E+01
 11.740  0.704E+01
 11.750  0.744E+01
 11.760  0.752E+01
 11.770  0.769E+01
 11.780  0.788E+01
 11.790  0.777E+01
 11.800  0.719E+01
 11.810  0.645E+01
 11.820  0.610E+01
 11.830  0.654E+01
 11.840  0.600E+01
 11.850  0.483E+01
 11.860  0.460E+01
 11.870  0.429E+01
 11.880  0.392E+01
 11.890  0.356E+01
 11.900  0.325E+01
 11.910  0.302E+01
 11.920  0.290E+01
 11.930  0.278E+01
 11.940  0.288E+01
 11.950  0.287E+01
 11.960  0.276E+01
 11.970  0.265E+01
 11.980  0.252E+01
 11.990  0.239E+01
 12.000  0.225E+01
 12.010  0.209E+01
