# E (eV)   ldos(E)   pdos(E)   
   0.000  0.367E-01  0.367E-01
   0.010  0.354E-01  0.354E-01
   0.020  0.397E-01  0.397E-01
   0.030  0.136E+00  0.136E+00
   0.040  0.121E+00  0.121E+00
   0.050  0.125E+00  0.125E+00
   0.060  0.710E-01  0.710E-01
   0.070  0.397E-01  0.397E-01
   0.080  0.367E-01  0.367E-01
   0.090  0.648E-01  0.648E-01
   0.100  0.774E-01  0.774E-01
   0.110  0.148E+00  0.148E+00
   0.120  0.125E+00  0.125E+00
   0.130  0.858E-01  0.858E-01
   0.140  0.588E-01  0.588E-01
   0.150  0.385E-01  0.385E-01
   0.160  0.295E-01  0.295E-01
   0.170  0.183E-01  0.183E-01
   0.180  0.523E-02  0.523E-02
   0.190  0.741E-03  0.741E-03
   0.200  0.281E-05  0.281E-05
   0.210  0.000E+00  0.000E+00
   0.220  0.000E+00  0.000E+00
   0.230  0.000E+00  0.000E+00
   0.240  0.000E+00  0.000E+00
   0.250  0.000E+00  0.000E+00
   0.260  0.000E+00  0.000E+00
   0.270  0.000E+00  0.000E+00
   0.280  0.000E+00  0.000E+00
   0.290  0.000E+00  0.000E+00
   0.300  0.000E+00  0.000E+00
   0.310  0.000E+00  0.000E+00
   0.320 -0.151E-09 -0.151E-09
   0.330 -0.506E-07 -0.506E-07
   0.340 -0.387E-06 -0.387E-06
   0.350 -0.998E-06 -0.998E-06
   0.360 -0.101E-05 -0.101E-05
   0.370  0.658E-06  0.658E-06
   0.380  0.509E-05  0.509E-05
   0.390  0.134E-04  0.134E-04
   0.400  0.266E-04  0.266E-04
   0.410  0.458E-04  0.458E-04
   0.420  0.722E-04  0.722E-04
   0.430  0.107E-03  0.107E-03
   0.440  0.151E-03  0.151E-03
   0.450  0.205E-03  0.205E-03
   0.460  0.273E-03  0.273E-03
   0.470  0.392E-03  0.392E-03
   0.480  0.605E-03  0.605E-03
   0.490  0.870E-03  0.870E-03
   0.500  0.115E-02  0.115E-02
   0.510  0.143E-02  0.143E-02
   0.520  0.167E-02  0.167E-02
   0.530  0.184E-02  0.184E-02
   0.540  0.192E-02  0.192E-02
   0.550  0.187E-02  0.187E-02
   0.560  0.170E-02  0.170E-02
   0.570  0.166E-02  0.166E-02
   0.580  0.179E-02  0.179E-02
   0.590  0.193E-02  0.193E-02
   0.600  0.208E-02  0.208E-02
   0.610  0.223E-02  0.223E-02
   0.620  0.240E-02  0.240E-02
   0.630  0.258E-02  0.258E-02
   0.640  0.277E-02  0.277E-02
   0.650  0.299E-02  0.299E-02
   0.660  0.321E-02  0.321E-02
   0.670  0.344E-02  0.344E-02
   0.680  0.377E-02  0.377E-02
   0.690  0.459E-02  0.459E-02
   0.700  0.568E-02  0.568E-02
   0.710  0.633E-02  0.633E-02
   0.720  0.657E-02  0.657E-02
   0.730  0.689E-02  0.689E-02
   0.740  0.731E-02  0.731E-02
   0.750  0.796E-02  0.796E-02
   0.760  0.920E-02  0.920E-02
   0.770  0.104E-01  0.104E-01
   0.780  0.108E-01  0.108E-01
   0.790  0.114E-01  0.114E-01
   0.800  0.121E-01  0.121E-01
   0.810  0.127E-01  0.127E-01
   0.820  0.132E-01  0.132E-01
   0.830  0.136E-01  0.136E-01
   0.840  0.140E-01  0.140E-01
   0.850  0.143E-01  0.143E-01
   0.860  0.146E-01  0.146E-01
   0.870  0.148E-01  0.148E-01
   0.880  0.153E-01  0.153E-01
   0.890  0.162E-01  0.162E-01
   0.900  0.170E-01  0.170E-01
   0.910  0.179E-01  0.179E-01
   0.920  0.192E-01  0.192E-01
   0.930  0.194E-01  0.194E-01
   0.940  0.191E-01  0.191E-01
   0.950  0.187E-01  0.187E-01
   0.960  0.183E-01  0.183E-01
   0.970  0.170E-01  0.170E-01
   0.980  0.186E-01  0.186E-01
   0.990  0.227E-01  0.227E-01
   1.000  0.284E-01  0.284E-01
   1.010  0.330E-01  0.330E-01
   1.020  0.285E-01  0.285E-01
   1.030  0.517E-01  0.517E-01
   1.040  0.505E-01  0.505E-01
   1.050  0.383E-01  0.383E-01
   1.060  0.309E-01  0.309E-01
   1.070  0.305E-01  0.305E-01
   1.080  0.258E-01  0.258E-01
   1.090  0.291E-01  0.291E-01
   1.100  0.307E-01  0.307E-01
   1.110  0.301E-01  0.301E-01
   1.120  0.268E-01  0.268E-01
   1.130  0.209E-01  0.209E-01
   1.140  0.159E-01  0.159E-01
   1.150  0.219E-01  0.219E-01
   1.160  0.303E-01  0.303E-01
   1.170  0.348E-01  0.348E-01
   1.180  0.353E-01  0.353E-01
   1.190  0.356E-01  0.356E-01
   1.200  0.380E-01  0.380E-01
   1.210  0.396E-01  0.396E-01
   1.220  0.413E-01  0.413E-01
   1.230  0.434E-01  0.434E-01
   1.240  0.458E-01  0.458E-01
   1.250  0.483E-01  0.483E-01
   1.260  0.514E-01  0.514E-01
   1.270  0.544E-01  0.544E-01
   1.280  0.566E-01  0.566E-01
   1.290  0.580E-01  0.580E-01
   1.300  0.583E-01  0.583E-01
   1.310  0.571E-01  0.571E-01
   1.320  0.540E-01  0.540E-01
   1.330  0.497E-01  0.497E-01
   1.340  0.475E-01  0.475E-01
   1.350  0.456E-01  0.456E-01
   1.360  0.443E-01  0.443E-01
   1.370  0.433E-01  0.433E-01
   1.380  0.424E-01  0.424E-01
   1.390  0.414E-01  0.414E-01
   1.400  0.403E-01  0.403E-01
   1.410  0.393E-01  0.393E-01
   1.420  0.384E-01  0.384E-01
   1.430  0.381E-01  0.381E-01
   1.440  0.393E-01  0.393E-01
   1.450  0.408E-01  0.408E-01
   1.460  0.418E-01  0.418E-01
   1.470  0.425E-01  0.425E-01
   1.480  0.429E-01  0.429E-01
   1.490  0.429E-01  0.429E-01
   1.500  0.427E-01  0.427E-01
   1.510  0.423E-01  0.423E-01
   1.520  0.416E-01  0.416E-01
   1.530  0.408E-01  0.408E-01
   1.540  0.397E-01  0.397E-01
   1.550  0.384E-01  0.384E-01
   1.560  0.371E-01  0.371E-01
   1.570  0.356E-01  0.356E-01
   1.580  0.340E-01  0.340E-01
   1.590  0.323E-01  0.323E-01
   1.600  0.305E-01  0.305E-01
   1.610  0.285E-01  0.285E-01
   1.620  0.271E-01  0.271E-01
   1.630  0.262E-01  0.262E-01
   1.640  0.256E-01  0.256E-01
   1.650  0.254E-01  0.254E-01
   1.660  0.255E-01  0.255E-01
   1.670  0.261E-01  0.261E-01
   1.680  0.277E-01  0.277E-01
   1.690  0.292E-01  0.292E-01
   1.700  0.314E-01  0.314E-01
   1.710  0.380E-01  0.380E-01
   1.720  0.424E-01  0.424E-01
   1.730  0.426E-01  0.426E-01
   1.740  0.394E-01  0.394E-01
   1.750  0.344E-01  0.344E-01
   1.760  0.290E-01  0.290E-01
   1.770  0.241E-01  0.241E-01
   1.780  0.212E-01  0.212E-01
   1.790  0.207E-01  0.207E-01
   1.800  0.212E-01  0.212E-01
   1.810  0.224E-01  0.224E-01
   1.820  0.244E-01  0.244E-01
   1.830  0.265E-01  0.265E-01
   1.840  0.286E-01  0.286E-01
   1.850  0.305E-01  0.305E-01
   1.860  0.324E-01  0.324E-01
   1.870  0.340E-01  0.340E-01
   1.880  0.355E-01  0.355E-01
   1.890  0.367E-01  0.367E-01
   1.900  0.377E-01  0.377E-01
   1.910  0.384E-01  0.384E-01
   1.920  0.388E-01  0.388E-01
   1.930  0.388E-01  0.388E-01
   1.940  0.384E-01  0.384E-01
   1.950  0.377E-01  0.377E-01
   1.960  0.366E-01  0.366E-01
   1.970  0.355E-01  0.355E-01
   1.980  0.346E-01  0.346E-01
   1.990  0.338E-01  0.338E-01
   2.000  0.328E-01  0.328E-01
   2.010  0.318E-01  0.318E-01
   2.020  0.308E-01  0.308E-01
   2.030  0.299E-01  0.299E-01
   2.040  0.289E-01  0.289E-01
   2.050  0.280E-01  0.280E-01
   2.060  0.271E-01  0.271E-01
   2.070  0.264E-01  0.264E-01
   2.080  0.258E-01  0.258E-01
   2.090  0.254E-01  0.254E-01
   2.100  0.251E-01  0.251E-01
   2.110  0.251E-01  0.251E-01
   2.120  0.253E-01  0.253E-01
   2.130  0.255E-01  0.255E-01
   2.140  0.257E-01  0.257E-01
   2.150  0.259E-01  0.259E-01
   2.160  0.262E-01  0.262E-01
   2.170  0.264E-01  0.264E-01
   2.180  0.266E-01  0.266E-01
   2.190  0.269E-01  0.269E-01
   2.200  0.272E-01  0.272E-01
   2.210  0.274E-01  0.274E-01
   2.220  0.283E-01  0.283E-01
   2.230  0.290E-01  0.290E-01
   2.240  0.305E-01  0.305E-01
   2.250  0.336E-01  0.336E-01
   2.260  0.419E-01  0.419E-01
   2.270  0.354E-01  0.354E-01
   2.280  0.336E-01  0.336E-01
   2.290  0.338E-01  0.338E-01
   2.300  0.335E-01  0.335E-01
   2.310  0.325E-01  0.325E-01
   2.320  0.311E-01  0.311E-01
   2.330  0.295E-01  0.295E-01
   2.340  0.287E-01  0.287E-01
   2.350  0.285E-01  0.285E-01
   2.360  0.283E-01  0.283E-01
   2.370  0.280E-01  0.280E-01
   2.380  0.277E-01  0.277E-01
   2.390  0.274E-01  0.274E-01
   2.400  0.271E-01  0.271E-01
   2.410  0.267E-01  0.267E-01
   2.420  0.262E-01  0.262E-01
   2.430  0.258E-01  0.258E-01
   2.440  0.253E-01  0.253E-01
   2.450  0.251E-01  0.251E-01
   2.460  0.258E-01  0.258E-01
   2.470  0.257E-01  0.257E-01
   2.480  0.247E-01  0.247E-01
   2.490  0.234E-01  0.234E-01
   2.500  0.225E-01  0.225E-01
   2.510  0.217E-01  0.217E-01
   2.520  0.209E-01  0.209E-01
   2.530  0.202E-01  0.202E-01
   2.540  0.196E-01  0.196E-01
   2.550  0.191E-01  0.191E-01
   2.560  0.187E-01  0.187E-01
   2.570  0.184E-01  0.184E-01
   2.580  0.182E-01  0.182E-01
   2.590  0.181E-01  0.181E-01
   2.600  0.181E-01  0.181E-01
   2.610  0.183E-01  0.183E-01
   2.620  0.196E-01  0.196E-01
   2.630  0.227E-01  0.227E-01
   2.640  0.271E-01  0.271E-01
   2.650  0.318E-01  0.318E-01
   2.660  0.362E-01  0.362E-01
   2.670  0.400E-01  0.400E-01
   2.680  0.427E-01  0.427E-01
   2.690  0.444E-01  0.444E-01
   2.700  0.450E-01  0.450E-01
   2.710  0.448E-01  0.448E-01
   2.720  0.444E-01  0.444E-01
   2.730  0.432E-01  0.432E-01
   2.740  0.498E-01  0.498E-01
   2.750  0.205E+00  0.205E+00
   2.760  0.581E-01  0.581E-01
   2.770  0.209E-01  0.209E-01
   2.780  0.115E-01  0.115E-01
   2.790  0.113E-01  0.113E-01
   2.800  0.114E-01  0.114E-01
   2.810  0.125E-01  0.125E-01
   2.820  0.178E-01  0.178E-01
   2.830  0.479E-01  0.479E-01
   2.840  0.488E-01  0.488E-01
   2.850  0.388E-01  0.388E-01
   2.860  0.229E-01  0.229E-01
   2.870  0.186E-01  0.186E-01
   2.880  0.145E-01  0.145E-01
   2.890  0.127E-01  0.127E-01
   2.900  0.123E-01  0.123E-01
   2.910  0.119E-01  0.119E-01
   2.920  0.115E-01  0.115E-01
   2.930  0.111E-01  0.111E-01
   2.940  0.107E-01  0.107E-01
   2.950  0.103E-01  0.103E-01
   2.960  0.982E-02  0.982E-02
   2.970  0.106E-01  0.106E-01
   2.980  0.149E-01  0.149E-01
   2.990  0.207E-01  0.207E-01
   3.000  0.287E-01  0.287E-01
   3.010  0.381E-01  0.381E-01
   3.020  0.411E-01  0.411E-01
   3.030  0.399E-01  0.399E-01
   3.040  0.377E-01  0.377E-01
   3.050  0.353E-01  0.353E-01
   3.060  0.328E-01  0.328E-01
   3.070  0.303E-01  0.303E-01
   3.080  0.279E-01  0.279E-01
   3.090  0.255E-01  0.255E-01
   3.100  0.234E-01  0.234E-01
   3.110  0.215E-01  0.215E-01
   3.120  0.186E-01  0.186E-01
   3.130  0.172E-01  0.172E-01
   3.140  0.169E-01  0.169E-01
   3.150  0.173E-01  0.173E-01
   3.160  0.179E-01  0.179E-01
   3.170  0.187E-01  0.187E-01
   3.180  0.191E-01  0.191E-01
   3.190  0.192E-01  0.192E-01
   3.200  0.190E-01  0.190E-01
   3.210  0.186E-01  0.186E-01
   3.220  0.192E-01  0.192E-01
   3.230  0.208E-01  0.208E-01
   3.240  0.242E-01  0.242E-01
   3.250  0.248E-01  0.248E-01
   3.260  0.248E-01  0.248E-01
   3.270  0.248E-01  0.248E-01
   3.280  0.248E-01  0.248E-01
   3.290  0.247E-01  0.247E-01
   3.300  0.246E-01  0.246E-01
   3.310  0.244E-01  0.244E-01
   3.320  0.241E-01  0.241E-01
   3.330  0.238E-01  0.238E-01
   3.340  0.232E-01  0.232E-01
   3.350  0.228E-01  0.228E-01
   3.360  0.227E-01  0.227E-01
   3.370  0.226E-01  0.226E-01
   3.380  0.224E-01  0.224E-01
   3.390  0.221E-01  0.221E-01
   3.400  0.239E-01  0.239E-01
   3.410  0.247E-01  0.247E-01
   3.420  0.266E-01  0.266E-01
   3.430  0.286E-01  0.286E-01
   3.440  0.301E-01  0.301E-01
   3.450  0.308E-01  0.308E-01
   3.460  0.306E-01  0.306E-01
   3.470  0.297E-01  0.297E-01
   3.480  0.293E-01  0.293E-01
   3.490  0.286E-01  0.286E-01
   3.500  0.278E-01  0.278E-01
   3.510  0.276E-01  0.276E-01
   3.520  0.279E-01  0.279E-01
   3.530  0.285E-01  0.285E-01
   3.540  0.293E-01  0.293E-01
   3.550  0.302E-01  0.302E-01
   3.560  0.312E-01  0.312E-01
   3.570  0.328E-01  0.328E-01
   3.580  0.341E-01  0.341E-01
   3.590  0.309E-01  0.309E-01
   3.600  0.280E-01  0.280E-01
   3.610  0.262E-01  0.262E-01
   3.620  0.246E-01  0.246E-01
   3.630  0.233E-01  0.233E-01
   3.640  0.218E-01  0.218E-01
   3.650  0.199E-01  0.199E-01
   3.660  0.187E-01  0.187E-01
   3.670  0.187E-01  0.187E-01
   3.680  0.149E-01  0.149E-01
   3.690  0.110E-01  0.110E-01
   3.700  0.105E-01  0.105E-01
   3.710  0.103E-01  0.103E-01
   3.720  0.109E-01  0.109E-01
   3.730  0.115E-01  0.115E-01
   3.740  0.124E-01  0.124E-01
   3.750  0.135E-01  0.135E-01
   3.760  0.149E-01  0.149E-01
   3.770  0.175E-01  0.175E-01
   3.780  0.198E-01  0.198E-01
   3.790  0.264E-01  0.264E-01
   3.800  0.194E-01  0.194E-01
   3.810  0.206E-01  0.206E-01
   3.820  0.256E-01  0.256E-01
   3.830  0.393E-01  0.393E-01
   3.840  0.478E-01  0.478E-01
   3.850  0.362E-01  0.362E-01
   3.860  0.332E-01  0.332E-01
   3.870  0.297E-01  0.297E-01
   3.880  0.258E-01  0.258E-01
   3.890  0.217E-01  0.217E-01
   3.900  0.177E-01  0.177E-01
   3.910  0.142E-01  0.142E-01
   3.920  0.108E-01  0.108E-01
   3.930  0.834E-02  0.834E-02
   3.940  0.686E-02  0.686E-02
   3.950  0.587E-02  0.587E-02
   3.960  0.530E-02  0.530E-02
   3.970  0.516E-02  0.516E-02
   3.980  0.533E-02  0.533E-02
   3.990  0.574E-02  0.574E-02
   4.000  0.638E-02  0.638E-02
   4.010  0.724E-02  0.724E-02
   4.020  0.830E-02  0.830E-02
   4.030  0.954E-02  0.954E-02
   4.040  0.109E-01  0.109E-01
   4.050  0.125E-01  0.125E-01
   4.060  0.142E-01  0.142E-01
   4.070  0.161E-01  0.161E-01
   4.080  0.182E-01  0.182E-01
   4.090  0.202E-01  0.202E-01
   4.100  0.221E-01  0.221E-01
   4.110  0.236E-01  0.236E-01
   4.120  0.258E-01  0.258E-01
   4.130  0.275E-01  0.275E-01
   4.140  0.266E-01  0.266E-01
   4.150  0.255E-01  0.255E-01
   4.160  0.230E-01  0.230E-01
   4.170  0.208E-01  0.208E-01
   4.180  0.188E-01  0.188E-01
   4.190  0.170E-01  0.170E-01
   4.200  0.155E-01  0.155E-01
   4.210  0.146E-01  0.146E-01
   4.220  0.142E-01  0.142E-01
   4.230  0.127E-01  0.127E-01
   4.240  0.111E-01  0.111E-01
   4.250  0.106E-01  0.106E-01
   4.260  0.101E-01  0.101E-01
   4.270  0.980E-02  0.980E-02
   4.280  0.958E-02  0.958E-02
   4.290  0.913E-02  0.913E-02
   4.300  0.888E-02  0.888E-02
   4.310  0.888E-02  0.888E-02
   4.320  0.930E-02  0.930E-02
   4.330  0.957E-02  0.957E-02
   4.340  0.951E-02  0.951E-02
   4.350  0.887E-02  0.887E-02
   4.360  0.956E-02  0.956E-02
   4.370  0.104E-01  0.104E-01
   4.380  0.110E-01  0.110E-01
   4.390  0.116E-01  0.116E-01
   4.400  0.123E-01  0.123E-01
   4.410  0.136E-01  0.136E-01
   4.420  0.153E-01  0.153E-01
   4.430  0.165E-01  0.165E-01
   4.440  0.119E-01  0.119E-01
   4.450  0.109E-01  0.109E-01
   4.460  0.947E-02  0.947E-02
   4.470  0.790E-02  0.790E-02
   4.480  0.612E-02  0.612E-02
   4.490  0.518E-02  0.518E-02
   4.500  0.504E-02  0.504E-02
   4.510  0.530E-02  0.530E-02
   4.520  0.563E-02  0.563E-02
   4.530  0.577E-02  0.577E-02
   4.540  0.595E-02  0.595E-02
   4.550  0.610E-02  0.610E-02
   4.560  0.622E-02  0.622E-02
   4.570  0.633E-02  0.633E-02
   4.580  0.644E-02  0.644E-02
   4.590  0.675E-02  0.675E-02
   4.600  0.739E-02  0.739E-02
   4.610  0.741E-02  0.741E-02
   4.620  0.730E-02  0.730E-02
   4.630  0.640E-02  0.640E-02
   4.640  0.583E-02  0.583E-02
   4.650  0.504E-02  0.504E-02
   4.660  0.392E-02  0.392E-02
   4.670  0.277E-02  0.277E-02
   4.680  0.180E-02  0.180E-02
   4.690  0.153E-02  0.153E-02
   4.700  0.152E-02  0.152E-02
   4.710  0.177E-02  0.177E-02
   4.720  0.238E-02  0.238E-02
   4.730  0.333E-02  0.333E-02
   4.740  0.449E-02  0.449E-02
   4.750  0.103E-01  0.103E-01
   4.760  0.946E-02  0.946E-02
   4.770  0.900E-02  0.900E-02
   4.780  0.834E-02  0.834E-02
   4.790  0.750E-02  0.750E-02
   4.800  0.686E-02  0.686E-02
   4.810  0.635E-02  0.635E-02
   4.820  0.597E-02  0.597E-02
   4.830  0.572E-02  0.572E-02
   4.840  0.557E-02  0.557E-02
   4.850  0.549E-02  0.549E-02
   4.860  0.540E-02  0.540E-02
   4.870  0.528E-02  0.528E-02
   4.880  0.513E-02  0.513E-02
   4.890  0.496E-02  0.496E-02
   4.900  0.478E-02  0.478E-02
   4.910  0.464E-02  0.464E-02
   4.920  0.453E-02  0.453E-02
   4.930  0.454E-02  0.454E-02
   4.940  0.479E-02  0.479E-02
   4.950  0.499E-02  0.499E-02
   4.960  0.467E-02  0.467E-02
   4.970  0.418E-02  0.418E-02
   4.980  0.383E-02  0.383E-02
   4.990  0.351E-02  0.351E-02
   5.000  0.315E-02  0.315E-02
   5.010  0.276E-02  0.276E-02
   5.020  0.236E-02  0.236E-02
   5.030  0.194E-02  0.194E-02
   5.040  0.152E-02  0.152E-02
   5.050  0.111E-02  0.111E-02
   5.060  0.838E-03  0.838E-03
   5.070  0.891E-03  0.891E-03
   5.080  0.111E-02  0.111E-02
   5.090  0.144E-02  0.144E-02
   5.100  0.196E-02  0.196E-02
   5.110  0.257E-02  0.257E-02
   5.120  0.311E-02  0.311E-02
   5.130  0.355E-02  0.355E-02
   5.140  0.376E-02  0.376E-02
   5.150  0.365E-02  0.365E-02
   5.160  0.272E-02  0.272E-02
   5.170  0.153E-02  0.153E-02
   5.180  0.826E-03  0.826E-03
   5.190  0.577E-03  0.577E-03
   5.200  0.567E-03  0.567E-03
   5.210  0.548E-03  0.548E-03
   5.220  0.539E-03  0.539E-03
   5.230  0.641E-03  0.641E-03
   5.240  0.961E-03  0.961E-03
   5.250  0.136E-02  0.136E-02
   5.260  0.159E-02  0.159E-02
   5.270  0.159E-02  0.159E-02
   5.280  0.170E-02  0.170E-02
   5.290  0.188E-02  0.188E-02
   5.300  0.183E-02  0.183E-02
   5.310  0.159E-02  0.159E-02
   5.320  0.128E-02  0.128E-02
   5.330  0.107E-02  0.107E-02
   5.340  0.875E-03  0.875E-03
   5.350  0.714E-03  0.714E-03
   5.360  0.582E-03  0.582E-03
   5.370  0.475E-03  0.475E-03
   5.380  0.390E-03  0.390E-03
   5.390  0.319E-03  0.319E-03
   5.400  0.260E-03  0.260E-03
   5.410  0.209E-03  0.209E-03
   5.420  0.163E-03  0.163E-03
   5.430  0.124E-03  0.124E-03
   5.440  0.892E-04  0.892E-04
   5.450  0.577E-04  0.577E-04
   5.460  0.236E-04  0.236E-04
   5.470 -0.575E-05 -0.575E-05
   5.480 -0.260E-04 -0.260E-04
   5.490 -0.374E-04 -0.374E-04
   5.500 -0.403E-04 -0.403E-04
   5.510 -0.351E-04 -0.351E-04
   5.520 -0.218E-04 -0.218E-04
   5.530 -0.427E-05 -0.427E-05
   5.540 -0.363E-07 -0.363E-07
   5.550  0.111E-06  0.111E-06
   5.560 -0.155E-07 -0.155E-07
   5.570 -0.958E-07 -0.958E-07
   5.580 -0.578E-07 -0.578E-07
   5.590 -0.103E-07 -0.103E-07
   5.600  0.000E+00  0.000E+00
   5.610  0.000E+00  0.000E+00
   5.620  0.000E+00  0.000E+00
   5.630  0.000E+00  0.000E+00
   5.640  0.000E+00  0.000E+00
   5.650  0.000E+00  0.000E+00
   5.660  0.000E+00  0.000E+00
   5.670  0.000E+00  0.000E+00
   5.680  0.000E+00  0.000E+00
   5.690  0.000E+00  0.000E+00
   5.700  0.000E+00  0.000E+00
   5.710  0.000E+00  0.000E+00
   5.720  0.000E+00  0.000E+00
   5.730  0.000E+00  0.000E+00
   5.740  0.000E+00  0.000E+00
   5.750  0.000E+00  0.000E+00
   5.760  0.000E+00  0.000E+00
   5.770  0.000E+00  0.000E+00
   5.780  0.000E+00  0.000E+00
   5.790  0.000E+00  0.000E+00
   5.800  0.000E+00  0.000E+00
   5.810  0.000E+00  0.000E+00
   5.820  0.000E+00  0.000E+00
   5.830  0.000E+00  0.000E+00
   5.840  0.000E+00  0.000E+00
   5.850  0.000E+00  0.000E+00
   5.860  0.000E+00  0.000E+00
   5.870  0.000E+00  0.000E+00
   5.880  0.000E+00  0.000E+00
   5.890  0.000E+00  0.000E+00
   5.900  0.000E+00  0.000E+00
   5.910  0.000E+00  0.000E+00
   5.920  0.000E+00  0.000E+00
   5.930  0.000E+00  0.000E+00
   5.940  0.000E+00  0.000E+00
   5.950  0.000E+00  0.000E+00
   5.960  0.000E+00  0.000E+00
   5.970  0.000E+00  0.000E+00
   5.980  0.000E+00  0.000E+00
   5.990  0.000E+00  0.000E+00
   6.000  0.000E+00  0.000E+00
   6.010  0.000E+00  0.000E+00
   6.020  0.000E+00  0.000E+00
   6.030  0.000E+00  0.000E+00
   6.040  0.000E+00  0.000E+00
   6.050  0.000E+00  0.000E+00
   6.060  0.000E+00  0.000E+00
   6.070  0.000E+00  0.000E+00
   6.080  0.000E+00  0.000E+00
   6.090  0.000E+00  0.000E+00
   6.100  0.000E+00  0.000E+00
   6.110  0.000E+00  0.000E+00
   6.120  0.000E+00  0.000E+00
   6.130  0.000E+00  0.000E+00
   6.140  0.000E+00  0.000E+00
   6.150  0.000E+00  0.000E+00
   6.160  0.000E+00  0.000E+00
   6.170  0.000E+00  0.000E+00
   6.180  0.000E+00  0.000E+00
   6.190  0.000E+00  0.000E+00
   6.200  0.000E+00  0.000E+00
   6.210  0.000E+00  0.000E+00
   6.220  0.000E+00  0.000E+00
   6.230  0.000E+00  0.000E+00
   6.240  0.000E+00  0.000E+00
   6.250  0.000E+00  0.000E+00
   6.260  0.000E+00  0.000E+00
   6.270  0.000E+00  0.000E+00
   6.280  0.000E+00  0.000E+00
   6.290  0.000E+00  0.000E+00
   6.300  0.000E+00  0.000E+00
   6.310  0.000E+00  0.000E+00
   6.320  0.000E+00  0.000E+00
   6.330  0.000E+00  0.000E+00
   6.340  0.000E+00  0.000E+00
   6.350  0.000E+00  0.000E+00
   6.360  0.000E+00  0.000E+00
   6.370  0.000E+00  0.000E+00
   6.380  0.000E+00  0.000E+00
   6.390  0.000E+00  0.000E+00
   6.400  0.000E+00  0.000E+00
   6.410  0.000E+00  0.000E+00
   6.420  0.000E+00  0.000E+00
   6.430  0.000E+00  0.000E+00
   6.440  0.000E+00  0.000E+00
   6.450  0.000E+00  0.000E+00
   6.460  0.000E+00  0.000E+00
   6.470  0.000E+00  0.000E+00
   6.480  0.000E+00  0.000E+00
   6.490  0.000E+00  0.000E+00
   6.500  0.000E+00  0.000E+00
   6.510  0.000E+00  0.000E+00
   6.520  0.000E+00  0.000E+00
   6.530  0.000E+00  0.000E+00
   6.540  0.000E+00  0.000E+00
   6.550  0.000E+00  0.000E+00
   6.560  0.000E+00  0.000E+00
   6.570  0.000E+00  0.000E+00
   6.580  0.000E+00  0.000E+00
   6.590  0.000E+00  0.000E+00
   6.600  0.000E+00  0.000E+00
   6.610  0.000E+00  0.000E+00
   6.620  0.000E+00  0.000E+00
   6.630  0.000E+00  0.000E+00
   6.640  0.000E+00  0.000E+00
   6.650  0.000E+00  0.000E+00
   6.660  0.000E+00  0.000E+00
   6.670  0.000E+00  0.000E+00
   6.680  0.000E+00  0.000E+00
   6.690  0.000E+00  0.000E+00
   6.700  0.000E+00  0.000E+00
   6.710  0.000E+00  0.000E+00
   6.720  0.000E+00  0.000E+00
   6.730  0.000E+00  0.000E+00
   6.740  0.000E+00  0.000E+00
   6.750  0.000E+00  0.000E+00
   6.760  0.000E+00  0.000E+00
   6.770  0.000E+00  0.000E+00
   6.780  0.000E+00  0.000E+00
   6.790  0.000E+00  0.000E+00
   6.800  0.000E+00  0.000E+00
   6.810  0.000E+00  0.000E+00
   6.820  0.000E+00  0.000E+00
   6.830  0.000E+00  0.000E+00
   6.840  0.000E+00  0.000E+00
   6.850  0.000E+00  0.000E+00
   6.860  0.000E+00  0.000E+00
   6.870  0.000E+00  0.000E+00
   6.880  0.000E+00  0.000E+00
   6.890  0.000E+00  0.000E+00
   6.900  0.000E+00  0.000E+00
   6.910  0.000E+00  0.000E+00
   6.920  0.000E+00  0.000E+00
   6.930  0.000E+00  0.000E+00
   6.940  0.000E+00  0.000E+00
   6.950  0.000E+00  0.000E+00
   6.960  0.000E+00  0.000E+00
   6.970  0.000E+00  0.000E+00
   6.980  0.000E+00  0.000E+00
   6.990  0.000E+00  0.000E+00
   7.000  0.000E+00  0.000E+00
   7.010  0.000E+00  0.000E+00
   7.020  0.000E+00  0.000E+00
   7.030  0.000E+00  0.000E+00
   7.040  0.000E+00  0.000E+00
   7.050  0.000E+00  0.000E+00
   7.060  0.000E+00  0.000E+00
   7.070  0.000E+00  0.000E+00
   7.080  0.000E+00  0.000E+00
   7.090  0.000E+00  0.000E+00
   7.100  0.000E+00  0.000E+00
   7.110  0.000E+00  0.000E+00
   7.120  0.000E+00  0.000E+00
   7.130  0.000E+00  0.000E+00
   7.140  0.000E+00  0.000E+00
   7.150  0.000E+00  0.000E+00
   7.160  0.000E+00  0.000E+00
   7.170  0.000E+00  0.000E+00
   7.180  0.000E+00  0.000E+00
   7.190  0.000E+00  0.000E+00
   7.200  0.000E+00  0.000E+00
   7.210  0.000E+00  0.000E+00
   7.220  0.000E+00  0.000E+00
   7.230  0.000E+00  0.000E+00
   7.240  0.000E+00  0.000E+00
   7.250  0.000E+00  0.000E+00
   7.260  0.000E+00  0.000E+00
   7.270  0.000E+00  0.000E+00
   7.280  0.000E+00  0.000E+00
   7.290  0.000E+00  0.000E+00
   7.300  0.000E+00  0.000E+00
   7.310  0.000E+00  0.000E+00
   7.320  0.000E+00  0.000E+00
   7.330  0.000E+00  0.000E+00
   7.340  0.000E+00  0.000E+00
   7.350  0.000E+00  0.000E+00
   7.360  0.000E+00  0.000E+00
   7.370  0.000E+00  0.000E+00
   7.380  0.000E+00  0.000E+00
   7.390  0.000E+00  0.000E+00
   7.400  0.000E+00  0.000E+00
   7.410  0.000E+00  0.000E+00
   7.420  0.419E-07  0.419E-07
   7.430  0.108E-05  0.108E-05
   7.440  0.351E-05  0.351E-05
   7.450  0.734E-05  0.734E-05
   7.460  0.150E-04  0.150E-04
   7.470  0.279E-04  0.279E-04
   7.480  0.461E-04  0.461E-04
   7.490  0.696E-04  0.696E-04
   7.500  0.983E-04  0.983E-04
   7.510  0.132E-03  0.132E-03
   7.520  0.171E-03  0.171E-03
   7.530  0.215E-03  0.215E-03
   7.540  0.264E-03  0.264E-03
   7.550  0.318E-03  0.318E-03
   7.560  0.377E-03  0.377E-03
   7.570  0.442E-03  0.442E-03
   7.580  0.510E-03  0.510E-03
   7.590  0.584E-03  0.584E-03
   7.600  0.663E-03  0.663E-03
   7.610  0.746E-03  0.746E-03
   7.620  0.834E-03  0.834E-03
   7.630  0.927E-03  0.927E-03
   7.640  0.102E-02  0.102E-02
   7.650  0.113E-02  0.113E-02
   7.660  0.123E-02  0.123E-02
   7.670  0.134E-02  0.134E-02
   7.680  0.146E-02  0.146E-02
   7.690  0.158E-02  0.158E-02
   7.700  0.171E-02  0.171E-02
   7.710  0.183E-02  0.183E-02
   7.720  0.197E-02  0.197E-02
   7.730  0.211E-02  0.211E-02
   7.740  0.225E-02  0.225E-02
   7.750  0.239E-02  0.239E-02
   7.760  0.255E-02  0.255E-02
   7.770  0.270E-02  0.270E-02
   7.780  0.286E-02  0.286E-02
   7.790  0.302E-02  0.302E-02
   7.800  0.319E-02  0.319E-02
   7.810  0.336E-02  0.336E-02
   7.820  0.353E-02  0.353E-02
   7.830  0.369E-02  0.369E-02
   7.840  0.386E-02  0.386E-02
   7.850  0.405E-02  0.405E-02
   7.860  0.425E-02  0.425E-02
   7.870  0.450E-02  0.450E-02
   7.880  0.476E-02  0.476E-02
   7.890  0.500E-02  0.500E-02
   7.900  0.523E-02  0.523E-02
   7.910  0.545E-02  0.545E-02
   7.920  0.565E-02  0.565E-02
   7.930  0.585E-02  0.585E-02
   7.940  0.603E-02  0.603E-02
   7.950  0.621E-02  0.621E-02
   7.960  0.638E-02  0.638E-02
   7.970  0.655E-02  0.655E-02
   7.980  0.671E-02  0.671E-02
   7.990  0.686E-02  0.686E-02
   8.000  0.701E-02  0.701E-02
   8.010  0.715E-02  0.715E-02
   8.020  0.729E-02  0.729E-02
   8.030  0.742E-02  0.742E-02
   8.040  0.754E-02  0.754E-02
   8.050  0.766E-02  0.766E-02
   8.060  0.777E-02  0.777E-02
   8.070  0.787E-02  0.787E-02
   8.080  0.796E-02  0.796E-02
   8.090  0.805E-02  0.805E-02
   8.100  0.813E-02  0.813E-02
   8.110  0.820E-02  0.820E-02
   8.120  0.823E-02  0.823E-02
   8.130  0.821E-02  0.821E-02
   8.140  0.815E-02  0.815E-02
   8.150  0.806E-02  0.806E-02
   8.160  0.801E-02  0.801E-02
   8.170  0.797E-02  0.797E-02
   8.180  0.795E-02  0.795E-02
   8.190  0.792E-02  0.792E-02
   8.200  0.789E-02  0.789E-02
   8.210  0.786E-02  0.786E-02
   8.220  0.782E-02  0.782E-02
   8.230  0.779E-02  0.779E-02
   8.240  0.776E-02  0.776E-02
   8.250  0.774E-02  0.774E-02
   8.260  0.774E-02  0.774E-02
   8.270  0.774E-02  0.774E-02
   8.280  0.775E-02  0.775E-02
   8.290  0.778E-02  0.778E-02
   8.300  0.782E-02  0.782E-02
   8.310  0.789E-02  0.789E-02
   8.320  0.797E-02  0.797E-02
   8.330  0.806E-02  0.806E-02
   8.340  0.815E-02  0.815E-02
   8.350  0.823E-02  0.823E-02
   8.360  0.831E-02  0.831E-02
   8.370  0.839E-02  0.839E-02
   8.380  0.846E-02  0.846E-02
   8.390  0.853E-02  0.853E-02
   8.400  0.859E-02  0.859E-02
   8.410  0.865E-02  0.865E-02
   8.420  0.871E-02  0.871E-02
   8.430  0.877E-02  0.877E-02
   8.440  0.882E-02  0.882E-02
   8.450  0.888E-02  0.888E-02
   8.460  0.893E-02  0.893E-02
   8.470  0.898E-02  0.898E-02
   8.480  0.903E-02  0.903E-02
   8.490  0.908E-02  0.908E-02
   8.500  0.912E-02  0.912E-02
   8.510  0.917E-02  0.917E-02
   8.520  0.921E-02  0.921E-02
   8.530  0.926E-02  0.926E-02
   8.540  0.930E-02  0.930E-02
   8.550  0.933E-02  0.933E-02
   8.560  0.937E-02  0.937E-02
   8.570  0.940E-02  0.940E-02
   8.580  0.942E-02  0.942E-02
   8.590  0.944E-02  0.944E-02
   8.600  0.946E-02  0.946E-02
   8.610  0.947E-02  0.947E-02
   8.620  0.947E-02  0.947E-02
   8.630  0.947E-02  0.947E-02
   8.640  0.946E-02  0.946E-02
   8.650  0.945E-02  0.945E-02
   8.660  0.943E-02  0.943E-02
   8.670  0.940E-02  0.940E-02
   8.680  0.936E-02  0.936E-02
   8.690  0.932E-02  0.932E-02
   8.700  0.926E-02  0.926E-02
   8.710  0.931E-02  0.931E-02
   8.720  0.988E-02  0.988E-02
   8.730  0.110E-01  0.110E-01
   8.740  0.127E-01  0.127E-01
   8.750  0.149E-01  0.149E-01
   8.760  0.177E-01  0.177E-01
   8.770  0.210E-01  0.210E-01
   8.780  0.248E-01  0.248E-01
   8.790  0.291E-01  0.291E-01
   8.800  0.336E-01  0.336E-01
   8.810  0.419E-01  0.419E-01
   8.820  0.566E-01  0.566E-01
   8.830  0.116E+00  0.116E+00
   8.840  0.105E+00  0.105E+00
   8.850  0.965E-01  0.965E-01
   8.860  0.921E-01  0.921E-01
   8.870  0.922E-01  0.922E-01
   8.880  0.926E-01  0.926E-01
   8.890  0.920E-01  0.920E-01
   8.900  0.908E-01  0.908E-01
   8.910  0.889E-01  0.889E-01
   8.920  0.864E-01  0.864E-01
   8.930  0.839E-01  0.839E-01
   8.940  0.814E-01  0.814E-01
   8.950  0.793E-01  0.793E-01
   8.960  0.782E-01  0.782E-01
   8.970  0.781E-01  0.781E-01
   8.980  0.836E-01  0.836E-01
   8.990  0.909E-01  0.909E-01
   9.000  0.968E-01  0.968E-01
   9.010  0.936E-01  0.936E-01
   9.020  0.876E-01  0.876E-01
   9.030  0.858E-01  0.858E-01
   9.040  0.860E-01  0.860E-01
   9.050  0.965E-01  0.965E-01
   9.060  0.863E-01  0.863E-01
   9.070  0.773E-01  0.773E-01
   9.080  0.801E-01  0.801E-01
   9.090  0.833E-01  0.833E-01
   9.100  0.866E-01  0.866E-01
   9.110  0.905E-01  0.905E-01
   9.120  0.937E-01  0.937E-01
   9.130  0.968E-01  0.968E-01
   9.140  0.999E-01  0.999E-01
   9.150  0.102E+00  0.102E+00
   9.160  0.104E+00  0.104E+00
   9.170  0.106E+00  0.106E+00
   9.180  0.108E+00  0.108E+00
   9.190  0.109E+00  0.109E+00
   9.200  0.111E+00  0.111E+00
   9.210  0.113E+00  0.113E+00
   9.220  0.115E+00  0.115E+00
   9.230  0.117E+00  0.117E+00
   9.240  0.119E+00  0.119E+00
   9.250  0.122E+00  0.122E+00
   9.260  0.124E+00  0.124E+00
   9.270  0.126E+00  0.126E+00
   9.280  0.129E+00  0.129E+00
   9.290  0.131E+00  0.131E+00
   9.300  0.135E+00  0.135E+00
   9.310  0.139E+00  0.139E+00
   9.320  0.143E+00  0.143E+00
   9.330  0.147E+00  0.147E+00
   9.340  0.150E+00  0.150E+00
   9.350  0.153E+00  0.153E+00
   9.360  0.154E+00  0.154E+00
   9.370  0.156E+00  0.156E+00
   9.380  0.157E+00  0.157E+00
   9.390  0.159E+00  0.159E+00
   9.400  0.162E+00  0.162E+00
   9.410  0.166E+00  0.166E+00
   9.420  0.171E+00  0.171E+00
   9.430  0.176E+00  0.176E+00
   9.440  0.182E+00  0.182E+00
   9.450  0.179E+00  0.179E+00
   9.460  0.171E+00  0.171E+00
   9.470  0.169E+00  0.169E+00
   9.480  0.172E+00  0.172E+00
   9.490  0.175E+00  0.175E+00
   9.500  0.184E+00  0.184E+00
   9.510  0.187E+00  0.187E+00
   9.520  0.182E+00  0.182E+00
   9.530  0.171E+00  0.171E+00
   9.540  0.168E+00  0.168E+00
   9.550  0.160E+00  0.160E+00
   9.560  0.146E+00  0.146E+00
   9.570  0.150E+00  0.150E+00
   9.580  0.152E+00  0.152E+00
   9.590  0.154E+00  0.154E+00
   9.600  0.154E+00  0.154E+00
   9.610  0.154E+00  0.154E+00
   9.620  0.152E+00  0.152E+00
   9.630  0.145E+00  0.145E+00
   9.640  0.139E+00  0.139E+00
   9.650  0.134E+00  0.134E+00
   9.660  0.126E+00  0.126E+00
   9.670  0.124E+00  0.124E+00
   9.680  0.124E+00  0.124E+00
   9.690  0.124E+00  0.124E+00
   9.700  0.123E+00  0.123E+00
   9.710  0.123E+00  0.123E+00
   9.720  0.122E+00  0.122E+00
   9.730  0.144E+00  0.144E+00
   9.740  0.114E+00  0.114E+00
   9.750  0.103E+00  0.103E+00
   9.760  0.996E-01  0.996E-01
   9.770  0.969E-01  0.969E-01
   9.780  0.953E-01  0.953E-01
   9.790  0.945E-01  0.945E-01
   9.800  0.945E-01  0.945E-01
   9.810  0.956E-01  0.956E-01
   9.820  0.978E-01  0.978E-01
   9.830  0.103E+00  0.103E+00
   9.840  0.162E+00  0.162E+00
   9.850  0.354E+00  0.354E+00
   9.860  0.376E+00  0.376E+00
   9.870  0.385E+00  0.385E+00
   9.880  0.346E+00  0.346E+00
   9.890  0.292E+00  0.292E+00
   9.900  0.380E+00  0.380E+00
   9.910  0.289E+00  0.289E+00
   9.920  0.265E+00  0.265E+00
   9.930  0.260E+00  0.260E+00
   9.940  0.255E+00  0.255E+00
   9.950  0.253E+00  0.253E+00
   9.960  0.253E+00  0.253E+00
   9.970  0.252E+00  0.252E+00
   9.980  0.249E+00  0.249E+00
   9.990  0.245E+00  0.245E+00
  10.000  0.240E+00  0.240E+00
  10.010  0.233E+00  0.233E+00
  10.020  0.226E+00  0.226E+00
  10.030  0.217E+00  0.217E+00
  10.040  0.209E+00  0.209E+00
  10.050  0.199E+00  0.199E+00
  10.060  0.191E+00  0.191E+00
  10.070  0.201E+00  0.201E+00
  10.080  0.208E+00  0.208E+00
  10.090  0.222E+00  0.222E+00
  10.100  0.193E+00  0.193E+00
  10.110  0.166E+00  0.166E+00
  10.120  0.151E+00  0.151E+00
  10.130  0.143E+00  0.143E+00
  10.140  0.136E+00  0.136E+00
  10.150  0.131E+00  0.131E+00
  10.160  0.125E+00  0.125E+00
  10.170  0.120E+00  0.120E+00
  10.180  0.119E+00  0.119E+00
  10.190  0.117E+00  0.117E+00
  10.200  0.113E+00  0.113E+00
  10.210  0.111E+00  0.111E+00
  10.220  0.108E+00  0.108E+00
  10.230  0.106E+00  0.106E+00
  10.240  0.103E+00  0.103E+00
  10.250  0.101E+00  0.101E+00
  10.260  0.993E-01  0.993E-01
  10.270  0.975E-01  0.975E-01
  10.280  0.959E-01  0.959E-01
  10.290  0.993E-01  0.993E-01
  10.300  0.143E+00  0.143E+00
  10.310  0.201E+00  0.201E+00
  10.320  0.178E+00  0.178E+00
  10.330  0.159E+00  0.159E+00
  10.340  0.135E+00  0.135E+00
  10.350  0.109E+00  0.109E+00
  10.360  0.901E-01  0.901E-01
  10.370  0.799E-01  0.799E-01
  10.380  0.729E-01  0.729E-01
  10.390  0.664E-01  0.664E-01
  10.400  0.584E-01  0.584E-01
  10.410  0.505E-01  0.505E-01
  10.420  0.443E-01  0.443E-01
  10.430  0.429E-01  0.429E-01
  10.440  0.449E-01  0.449E-01
  10.450  0.482E-01  0.482E-01
  10.460  0.509E-01  0.509E-01
  10.470  0.540E-01  0.540E-01
  10.480  0.575E-01  0.575E-01
  10.490  0.609E-01  0.609E-01
  10.500  0.642E-01  0.642E-01
  10.510  0.672E-01  0.672E-01
  10.520  0.681E-01  0.681E-01
  10.530  0.693E-01  0.693E-01
  10.540  0.713E-01  0.713E-01
  10.550  0.735E-01  0.735E-01
  10.560  0.758E-01  0.758E-01
  10.570  0.755E-01  0.755E-01
  10.580  0.752E-01  0.752E-01
  10.590  0.747E-01  0.747E-01
  10.600  0.741E-01  0.741E-01
  10.610  0.734E-01  0.734E-01
  10.620  0.727E-01  0.727E-01
  10.630  0.716E-01  0.716E-01
  10.640  0.722E-01  0.722E-01
  10.650  0.787E-01  0.787E-01
  10.660  0.858E-01  0.858E-01
  10.670  0.809E-01  0.809E-01
  10.680  0.697E-01  0.697E-01
  10.690  0.624E-01  0.624E-01
  10.700  0.554E-01  0.554E-01
  10.710  0.495E-01  0.495E-01
  10.720  0.459E-01  0.459E-01
  10.730  0.433E-01  0.433E-01
  10.740  0.406E-01  0.406E-01
  10.750  0.372E-01  0.372E-01
  10.760  0.334E-01  0.334E-01
  10.770  0.313E-01  0.313E-01
  10.780  0.252E-01  0.252E-01
  10.790  0.263E-01  0.263E-01
  10.800  0.211E-01  0.211E-01
  10.810  0.193E-01  0.193E-01
  10.820  0.189E-01  0.189E-01
  10.830  0.187E-01  0.187E-01
  10.840  0.177E-01  0.177E-01
  10.850  0.173E-01  0.173E-01
  10.860  0.169E-01  0.169E-01
  10.870  0.165E-01  0.165E-01
  10.880  0.160E-01  0.160E-01
  10.890  0.155E-01  0.155E-01
  10.900  0.150E-01  0.150E-01
  10.910  0.148E-01  0.148E-01
  10.920  0.146E-01  0.146E-01
  10.930  0.155E-01  0.155E-01
  10.940  0.176E-01  0.176E-01
  10.950  0.200E-01  0.200E-01
  10.960  0.227E-01  0.227E-01
  10.970  0.256E-01  0.256E-01
  10.980  0.286E-01  0.286E-01
  10.990  0.316E-01  0.316E-01
  11.000  0.349E-01  0.349E-01
  11.010  0.384E-01  0.384E-01
  11.020  0.424E-01  0.424E-01
  11.030  0.590E-01  0.590E-01
  11.040  0.519E-01  0.519E-01
  11.050  0.718E-01  0.718E-01
  11.060  0.491E-01  0.491E-01
  11.070  0.379E-01  0.379E-01
  11.080  0.339E-01  0.339E-01
  11.090  0.292E-01  0.292E-01
  11.100  0.254E-01  0.254E-01
  11.110  0.237E-01  0.237E-01
  11.120  0.231E-01  0.231E-01
  11.130  0.227E-01  0.227E-01
  11.140  0.224E-01  0.224E-01
  11.150  0.221E-01  0.221E-01
  11.160  0.218E-01  0.218E-01
  11.170  0.216E-01  0.216E-01
  11.180  0.213E-01  0.213E-01
  11.190  0.211E-01  0.211E-01
  11.200  0.209E-01  0.209E-01
  11.210  0.208E-01  0.208E-01
  11.220  0.206E-01  0.206E-01
  11.230  0.205E-01  0.205E-01
  11.240  0.204E-01  0.204E-01
  11.250  0.204E-01  0.204E-01
  11.260  0.204E-01  0.204E-01
  11.270  0.204E-01  0.204E-01
  11.280  0.210E-01  0.210E-01
  11.290  0.224E-01  0.224E-01
  11.300  0.252E-01  0.252E-01
  11.310  0.278E-01  0.278E-01
  11.320  0.304E-01  0.304E-01
  11.330  0.334E-01  0.334E-01
  11.340  0.367E-01  0.367E-01
  11.350  0.403E-01  0.403E-01
  11.360  0.440E-01  0.440E-01
  11.370  0.477E-01  0.477E-01
  11.380  0.512E-01  0.512E-01
  11.390  0.545E-01  0.545E-01
  11.400  0.564E-01  0.564E-01
  11.410  0.558E-01  0.558E-01
  11.420  0.550E-01  0.550E-01
  11.430  0.526E-01  0.526E-01
  11.440  0.518E-01  0.518E-01
  11.450  0.542E-01  0.542E-01
  11.460  0.551E-01  0.551E-01
  11.470  0.492E-01  0.492E-01
  11.480  0.418E-01  0.418E-01
  11.490  0.405E-01  0.405E-01
  11.500  0.397E-01  0.397E-01
  11.510  0.398E-01  0.398E-01
  11.520  0.409E-01  0.409E-01
  11.530  0.428E-01  0.428E-01
  11.540  0.423E-01  0.423E-01
  11.550  0.439E-01  0.439E-01
  11.560  0.433E-01  0.433E-01
  11.570  0.399E-01  0.399E-01
  11.580  0.392E-01  0.392E-01
  11.590  0.420E-01  0.420E-01
  11.600  0.448E-01  0.448E-01
  11.610  0.474E-01  0.474E-01
  11.620  0.500E-01  0.500E-01
  11.630  0.528E-01  0.528E-01
  11.640  0.552E-01  0.552E-01
  11.650  0.569E-01  0.569E-01
  11.660  0.658E-01  0.658E-01
  11.670  0.520E-01  0.520E-01
  11.680  0.442E-01  0.442E-01
  11.690  0.396E-01  0.396E-01
  11.700  0.355E-01  0.355E-01
  11.710  0.325E-01  0.325E-01
  11.720  0.305E-01  0.305E-01
  11.730  0.288E-01  0.288E-01
  11.740  0.280E-01  0.280E-01
  11.750  0.279E-01  0.279E-01
  11.760  0.280E-01  0.280E-01
  11.770  0.289E-01  0.289E-01
  11.780  0.295E-01  0.295E-01
  11.790  0.293E-01  0.293E-01
  11.800  0.281E-01  0.281E-01
  11.810  0.261E-01  0.261E-01
  11.820  0.246E-01  0.246E-01
  11.830  0.266E-01  0.266E-01
  11.840  0.264E-01  0.264E-01
  11.850  0.209E-01  0.209E-01
  11.860  0.201E-01  0.201E-01
  11.870  0.185E-01  0.185E-01
  11.880  0.157E-01  0.157E-01
  11.890  0.132E-01  0.132E-01
  11.900  0.115E-01  0.115E-01
  11.910  0.105E-01  0.105E-01
  11.920  0.100E-01  0.100E-01
  11.930  0.949E-02  0.949E-02
  11.940  0.100E-01  0.100E-01
  11.950  0.103E-01  0.103E-01
  11.960  0.947E-02  0.947E-02
  11.970  0.862E-02  0.862E-02
  11.980  0.776E-02  0.776E-02
  11.990  0.689E-02  0.689E-02
  12.000  0.605E-02  0.605E-02
  12.010  0.524E-02  0.524E-02
