#  E (eV)   dosup(E)     dosdw(E)   Int dos(E) EFermi =    7.442 eV
   0.000  0.5764E+02  0.5764E+02  0.3638E+03
   0.010  0.6779E+02  0.6779E+02  0.3650E+03
   0.020  0.8745E+02  0.8745E+02  0.3665E+03
   0.030  0.7995E+02  0.7995E+02  0.3682E+03
   0.040  0.7548E+02  0.7548E+02  0.3698E+03
   0.050  0.6950E+02  0.6950E+02  0.3712E+03
   0.060  0.6243E+02  0.6243E+02  0.3725E+03
   0.070  0.6874E+02  0.6874E+02  0.3738E+03
   0.080  0.6056E+02  0.6056E+02  0.3751E+03
   0.090  0.6445E+02  0.6445E+02  0.3762E+03
   0.100  0.6678E+02  0.6678E+02  0.3775E+03
   0.110  0.6868E+02  0.6868E+02  0.3788E+03
   0.120  0.6529E+02  0.6529E+02  0.3802E+03
   0.130  0.5275E+02  0.5275E+02  0.3814E+03
   0.140  0.3640E+02  0.3640E+02  0.3823E+03
   0.150  0.2590E+02  0.2590E+02  0.3830E+03
   0.160  0.1888E+02  0.1888E+02  0.3834E+03
   0.170  0.1372E+02  0.1372E+02  0.3837E+03
   0.180  0.6637E+01  0.6637E+01  0.3840E+03
   0.190  0.1006E+00  0.1006E+00  0.3840E+03
   0.200  0.0000E+00  0.0000E+00  0.3840E+03
   0.210  0.0000E+00  0.0000E+00  0.3840E+03
   0.220  0.0000E+00  0.0000E+00  0.3840E+03
   0.230  0.0000E+00  0.0000E+00  0.3840E+03
   0.240  0.0000E+00  0.0000E+00  0.3840E+03
   0.250  0.0000E+00  0.0000E+00  0.3840E+03
   0.260  0.0000E+00  0.0000E+00  0.3840E+03
   0.270  0.0000E+00  0.0000E+00  0.3840E+03
   0.280  0.0000E+00  0.0000E+00  0.3840E+03
   0.290  0.0000E+00  0.0000E+00  0.3840E+03
   0.300  0.0000E+00  0.0000E+00  0.3840E+03
   0.310  0.0000E+00  0.0000E+00  0.3840E+03
   0.320  0.0000E+00  0.0000E+00  0.3840E+03
   0.330  0.0000E+00  0.0000E+00  0.3840E+03
   0.340  0.4199E-04  0.4200E-04  0.3840E+03
   0.350  0.8516E-03  0.8516E-03  0.3840E+03
   0.360  0.9626E-02  0.9626E-02  0.3840E+03
   0.370  0.4476E-01  0.4476E-01  0.3840E+03
   0.380  0.1128E+00  0.1128E+00  0.3840E+03
   0.390  0.2162E+00  0.2162E+00  0.3840E+03
   0.400  0.4165E+00  0.4165E+00  0.3840E+03
   0.410  0.7702E+00  0.7702E+00  0.3840E+03
   0.420  0.1243E+01  0.1243E+01  0.3840E+03
   0.430  0.1841E+01  0.1841E+01  0.3841E+03
   0.440  0.2230E+01  0.2230E+01  0.3841E+03
   0.450  0.2423E+01  0.2423E+01  0.3842E+03
   0.460  0.2431E+01  0.2431E+01  0.3842E+03
   0.470  0.2322E+01  0.2322E+01  0.3843E+03
   0.480  0.2429E+01  0.2429E+01  0.3843E+03
   0.490  0.2632E+01  0.2632E+01  0.3844E+03
   0.500  0.2946E+01  0.2946E+01  0.3844E+03
   0.510  0.3497E+01  0.3497E+01  0.3845E+03
   0.520  0.3994E+01  0.3994E+01  0.3846E+03
   0.530  0.4384E+01  0.4384E+01  0.3846E+03
   0.540  0.4332E+01  0.4332E+01  0.3847E+03
   0.550  0.4073E+01  0.4073E+01  0.3848E+03
   0.560  0.3982E+01  0.3982E+01  0.3849E+03
   0.570  0.4144E+01  0.4144E+01  0.3850E+03
   0.580  0.4337E+01  0.4337E+01  0.3851E+03
   0.590  0.4546E+01  0.4546E+01  0.3851E+03
   0.600  0.4784E+01  0.4784E+01  0.3852E+03
   0.610  0.5052E+01  0.5052E+01  0.3853E+03
   0.620  0.5351E+01  0.5351E+01  0.3854E+03
   0.630  0.5680E+01  0.5680E+01  0.3855E+03
   0.640  0.6060E+01  0.6060E+01  0.3857E+03
   0.650  0.6559E+01  0.6559E+01  0.3858E+03
   0.660  0.7104E+01  0.7104E+01  0.3859E+03
   0.670  0.7954E+01  0.7954E+01  0.3861E+03
   0.680  0.9499E+01  0.9499E+01  0.3862E+03
   0.690  0.1017E+02  0.1017E+02  0.3865E+03
   0.700  0.1008E+02  0.1008E+02  0.3867E+03
   0.710  0.1020E+02  0.1020E+02  0.3869E+03
   0.720  0.1006E+02  0.1006E+02  0.3871E+03
   0.730  0.9726E+01  0.9726E+01  0.3873E+03
   0.740  0.9496E+01  0.9496E+01  0.3875E+03
   0.750  0.9195E+01  0.9195E+01  0.3876E+03
   0.760  0.8676E+01  0.8676E+01  0.3878E+03
   0.770  0.8360E+01  0.8360E+01  0.3880E+03
   0.780  0.8370E+01  0.8370E+01  0.3882E+03
   0.790  0.8576E+01  0.8576E+01  0.3883E+03
   0.800  0.8914E+01  0.8914E+01  0.3885E+03
   0.810  0.9292E+01  0.9292E+01  0.3887E+03
   0.820  0.9795E+01  0.9795E+01  0.3889E+03
   0.830  0.1060E+02  0.1060E+02  0.3891E+03
   0.840  0.1181E+02  0.1181E+02  0.3893E+03
   0.850  0.1322E+02  0.1322E+02  0.3895E+03
   0.860  0.1489E+02  0.1489E+02  0.3898E+03
   0.870  0.1701E+02  0.1701E+02  0.3901E+03
   0.880  0.1817E+02  0.1817E+02  0.3905E+03
   0.890  0.1907E+02  0.1907E+02  0.3909E+03
   0.900  0.1970E+02  0.1970E+02  0.3913E+03
   0.910  0.2056E+02  0.2056E+02  0.3917E+03
   0.920  0.2071E+02  0.2071E+02  0.3921E+03
   0.930  0.2046E+02  0.2046E+02  0.3925E+03
   0.940  0.1982E+02  0.1982E+02  0.3929E+03
   0.950  0.1905E+02  0.1905E+02  0.3933E+03
   0.960  0.1859E+02  0.1859E+02  0.3937E+03
   0.970  0.1781E+02  0.1781E+02  0.3940E+03
   0.980  0.1736E+02  0.1736E+02  0.3944E+03
   0.990  0.1787E+02  0.1787E+02  0.3947E+03
   1.000  0.2284E+02  0.2284E+02  0.3951E+03
   1.010  0.2845E+02  0.2845E+02  0.3956E+03
   1.020  0.6069E+02  0.6069E+02  0.3964E+03
   1.030  0.5257E+02  0.5257E+02  0.3976E+03
   1.040  0.5683E+02  0.5683E+02  0.3987E+03
   1.050  0.8589E+02  0.8589E+02  0.4000E+03
   1.060  0.7485E+02  0.7485E+02  0.4020E+03
   1.070  0.5963E+02  0.5963E+02  0.4033E+03
   1.080  0.6162E+02  0.6162E+02  0.4045E+03
   1.090  0.3656E+02  0.3656E+02  0.4056E+03
   1.100  0.3148E+02  0.3148E+02  0.4063E+03
   1.110  0.2737E+02  0.2737E+02  0.4069E+03
   1.120  0.2364E+02  0.2364E+02  0.4074E+03
   1.130  0.2449E+02  0.2449E+02  0.4078E+03
   1.140  0.3257E+02  0.3257E+02  0.4084E+03
   1.150  0.3120E+02  0.3119E+02  0.4091E+03
   1.160  0.2594E+02  0.2594E+02  0.4096E+03
   1.170  0.2254E+02  0.2254E+02  0.4101E+03
   1.180  0.2468E+02  0.2468E+02  0.4106E+03
   1.190  0.2631E+02  0.2631E+02  0.4111E+03
   1.200  0.2612E+02  0.2612E+02  0.4116E+03
   1.210  0.2533E+02  0.2533E+02  0.4122E+03
   1.220  0.2448E+02  0.2448E+02  0.4127E+03
   1.230  0.2376E+02  0.2376E+02  0.4131E+03
   1.240  0.2304E+02  0.2304E+02  0.4136E+03
   1.250  0.2201E+02  0.2201E+02  0.4141E+03
   1.260  0.2107E+02  0.2107E+02  0.4145E+03
   1.270  0.2015E+02  0.2015E+02  0.4149E+03
   1.280  0.1949E+02  0.1949E+02  0.4153E+03
   1.290  0.1924E+02  0.1924E+02  0.4157E+03
   1.300  0.1908E+02  0.1908E+02  0.4161E+03
   1.310  0.1949E+02  0.1949E+02  0.4165E+03
   1.320  0.1943E+02  0.1943E+02  0.4168E+03
   1.330  0.1895E+02  0.1895E+02  0.4172E+03
   1.340  0.1659E+02  0.1659E+02  0.4176E+03
   1.350  0.1573E+02  0.1573E+02  0.4179E+03
   1.360  0.1679E+02  0.1679E+02  0.4182E+03
   1.370  0.1756E+02  0.1756E+02  0.4186E+03
   1.380  0.1777E+02  0.1777E+02  0.4189E+03
   1.390  0.1741E+02  0.1741E+02  0.4193E+03
   1.400  0.1689E+02  0.1689E+02  0.4196E+03
   1.410  0.1606E+02  0.1606E+02  0.4200E+03
   1.420  0.1532E+02  0.1532E+02  0.4203E+03
   1.430  0.1459E+02  0.1459E+02  0.4206E+03
   1.440  0.1402E+02  0.1402E+02  0.4209E+03
   1.450  0.1375E+02  0.1375E+02  0.4211E+03
   1.460  0.1351E+02  0.1351E+02  0.4214E+03
   1.470  0.1331E+02  0.1331E+02  0.4217E+03
   1.480  0.1324E+02  0.1324E+02  0.4219E+03
   1.490  0.1344E+02  0.1344E+02  0.4222E+03
   1.500  0.1356E+02  0.1356E+02  0.4225E+03
   1.510  0.1358E+02  0.1358E+02  0.4227E+03
   1.520  0.1332E+02  0.1332E+02  0.4230E+03
   1.530  0.1304E+02  0.1304E+02  0.4233E+03
   1.540  0.1292E+02  0.1292E+02  0.4235E+03
   1.550  0.1275E+02  0.1275E+02  0.4238E+03
   1.560  0.1228E+02  0.1228E+02  0.4240E+03
   1.570  0.1189E+02  0.1189E+02  0.4243E+03
   1.580  0.1154E+02  0.1154E+02  0.4245E+03
   1.590  0.1121E+02  0.1121E+02  0.4248E+03
   1.600  0.1091E+02  0.1091E+02  0.4250E+03
   1.610  0.1063E+02  0.1063E+02  0.4252E+03
   1.620  0.1030E+02  0.1030E+02  0.4254E+03
   1.630  0.1005E+02  0.1005E+02  0.4256E+03
   1.640  0.1000E+02  0.1000E+02  0.4258E+03
   1.650  0.1007E+02  0.1007E+02  0.4260E+03
   1.660  0.1023E+02  0.1023E+02  0.4262E+03
   1.670  0.1045E+02  0.1045E+02  0.4264E+03
   1.680  0.1072E+02  0.1072E+02  0.4266E+03
   1.690  0.1096E+02  0.1096E+02  0.4268E+03
   1.700  0.1094E+02  0.1094E+02  0.4271E+03
   1.710  0.1076E+02  0.1076E+02  0.4273E+03
   1.720  0.1032E+02  0.1032E+02  0.4275E+03
   1.730  0.9528E+01  0.9528E+01  0.4277E+03
   1.740  0.8570E+01  0.8570E+01  0.4279E+03
   1.750  0.7738E+01  0.7738E+01  0.4280E+03
   1.760  0.7425E+01  0.7425E+01  0.4282E+03
   1.770  0.8418E+01  0.8418E+01  0.4283E+03
   1.780  0.8516E+01  0.8516E+01  0.4285E+03
   1.790  0.8091E+01  0.8091E+01  0.4287E+03
   1.800  0.7903E+01  0.7903E+01  0.4288E+03
   1.810  0.8061E+01  0.8061E+01  0.4290E+03
   1.820  0.8204E+01  0.8204E+01  0.4292E+03
   1.830  0.8315E+01  0.8315E+01  0.4293E+03
   1.840  0.8386E+01  0.8386E+01  0.4295E+03
   1.850  0.8423E+01  0.8423E+01  0.4297E+03
   1.860  0.8427E+01  0.8427E+01  0.4298E+03
   1.870  0.8397E+01  0.8397E+01  0.4300E+03
   1.880  0.8331E+01  0.8331E+01  0.4302E+03
   1.890  0.8229E+01  0.8229E+01  0.4303E+03
   1.900  0.8112E+01  0.8112E+01  0.4305E+03
   1.910  0.8026E+01  0.8026E+01  0.4307E+03
   1.920  0.7985E+01  0.7985E+01  0.4308E+03
   1.930  0.8028E+01  0.8028E+01  0.4310E+03
   1.940  0.8116E+01  0.8116E+01  0.4311E+03
   1.950  0.8188E+01  0.8188E+01  0.4313E+03
   1.960  0.8242E+01  0.8242E+01  0.4315E+03
   1.970  0.8272E+01  0.8272E+01  0.4316E+03
   1.980  0.8269E+01  0.8269E+01  0.4318E+03
   1.990  0.8242E+01  0.8242E+01  0.4320E+03
   2.000  0.8215E+01  0.8215E+01  0.4321E+03
   2.010  0.8194E+01  0.8194E+01  0.4323E+03
   2.020  0.8172E+01  0.8172E+01  0.4324E+03
   2.030  0.8143E+01  0.8143E+01  0.4326E+03
   2.040  0.7998E+01  0.7998E+01  0.4328E+03
   2.050  0.8135E+01  0.8135E+01  0.4329E+03
   2.060  0.7956E+01  0.7956E+01  0.4331E+03
   2.070  0.7623E+01  0.7623E+01  0.4333E+03
   2.080  0.7500E+01  0.7500E+01  0.4334E+03
   2.090  0.7448E+01  0.7448E+01  0.4336E+03
   2.100  0.7423E+01  0.7423E+01  0.4337E+03
   2.110  0.7391E+01  0.7391E+01  0.4338E+03
   2.120  0.7336E+01  0.7336E+01  0.4340E+03
   2.130  0.7253E+01  0.7253E+01  0.4341E+03
   2.140  0.7125E+01  0.7125E+01  0.4343E+03
   2.150  0.6941E+01  0.6941E+01  0.4344E+03
   2.160  0.6689E+01  0.6689E+01  0.4346E+03
   2.170  0.6448E+01  0.6448E+01  0.4347E+03
   2.180  0.6177E+01  0.6177E+01  0.4348E+03
   2.190  0.5902E+01  0.5902E+01  0.4349E+03
   2.200  0.5718E+01  0.5718E+01  0.4351E+03
   2.210  0.5574E+01  0.5574E+01  0.4352E+03
   2.220  0.5431E+01  0.5431E+01  0.4353E+03
   2.230  0.5299E+01  0.5299E+01  0.4354E+03
   2.240  0.5181E+01  0.5181E+01  0.4355E+03
   2.250  0.5077E+01  0.5077E+01  0.4356E+03
   2.260  0.4996E+01  0.4996E+01  0.4357E+03
   2.270  0.4950E+01  0.4950E+01  0.4358E+03
   2.280  0.4936E+01  0.4936E+01  0.4359E+03
   2.290  0.4947E+01  0.4947E+01  0.4360E+03
   2.300  0.4976E+01  0.4976E+01  0.4361E+03
   2.310  0.5016E+01  0.5016E+01  0.4362E+03
   2.320  0.5068E+01  0.5068E+01  0.4363E+03
   2.330  0.5133E+01  0.5133E+01  0.4364E+03
   2.340  0.5238E+01  0.5238E+01  0.4365E+03
   2.350  0.5377E+01  0.5377E+01  0.4366E+03
   2.360  0.5285E+01  0.5285E+01  0.4367E+03
   2.370  0.5385E+01  0.5385E+01  0.4368E+03
   2.380  0.5646E+01  0.5646E+01  0.4369E+03
   2.390  0.5991E+01  0.5991E+01  0.4370E+03
   2.400  0.6176E+01  0.6176E+01  0.4372E+03
   2.410  0.6231E+01  0.6231E+01  0.4373E+03
   2.420  0.6299E+01  0.6299E+01  0.4374E+03
   2.430  0.6386E+01  0.6386E+01  0.4375E+03
   2.440  0.6451E+01  0.6451E+01  0.4377E+03
   2.450  0.6508E+01  0.6508E+01  0.4378E+03
   2.460  0.6570E+01  0.6570E+01  0.4379E+03
   2.470  0.6677E+01  0.6677E+01  0.4381E+03
   2.480  0.7356E+01  0.7356E+01  0.4382E+03
   2.490  0.8006E+01  0.8006E+01  0.4384E+03
   2.500  0.8505E+01  0.8505E+01  0.4385E+03
   2.510  0.9301E+01  0.9301E+01  0.4387E+03
   2.520  0.1021E+02  0.1021E+02  0.4389E+03
   2.530  0.1108E+02  0.1108E+02  0.4391E+03
   2.540  0.1174E+02  0.1174E+02  0.4393E+03
   2.550  0.1218E+02  0.1218E+02  0.4396E+03
   2.560  0.1244E+02  0.1244E+02  0.4398E+03
   2.570  0.1263E+02  0.1263E+02  0.4401E+03
   2.580  0.1301E+02  0.1301E+02  0.4403E+03
   2.590  0.1347E+02  0.1347E+02  0.4406E+03
   2.600  0.1420E+02  0.1420E+02  0.4409E+03
   2.610  0.1540E+02  0.1540E+02  0.4412E+03
   2.620  0.1639E+02  0.1639E+02  0.4415E+03
   2.630  0.1688E+02  0.1688E+02  0.4418E+03
   2.640  0.1707E+02  0.1707E+02  0.4422E+03
   2.650  0.1693E+02  0.1693E+02  0.4425E+03
   2.660  0.1798E+02  0.1798E+02  0.4429E+03
   2.670  0.1762E+02  0.1762E+02  0.4432E+03
   2.680  0.1954E+02  0.1954E+02  0.4436E+03
   2.690  0.2500E+02  0.2500E+02  0.4440E+03
   2.700  0.3001E+02  0.3001E+02  0.4446E+03
   2.710  0.3453E+02  0.3453E+02  0.4452E+03
   2.720  0.3370E+02  0.3370E+02  0.4459E+03
   2.730  0.2703E+02  0.2703E+02  0.4465E+03
   2.740  0.2194E+02  0.2194E+02  0.4470E+03
   2.750  0.2128E+02  0.2128E+02  0.4475E+03
   2.760  0.2149E+02  0.2149E+02  0.4479E+03
   2.770  0.2283E+02  0.2283E+02  0.4483E+03
   2.780  0.2398E+02  0.2398E+02  0.4488E+03
   2.790  0.2311E+02  0.2311E+02  0.4493E+03
   2.800  0.2248E+02  0.2248E+02  0.4497E+03
   2.810  0.2209E+02  0.2209E+02  0.4502E+03
   2.820  0.2209E+02  0.2209E+02  0.4506E+03
   2.830  0.2207E+02  0.2207E+02  0.4510E+03
   2.840  0.2230E+02  0.2230E+02  0.4515E+03
   2.850  0.2203E+02  0.2203E+02  0.4519E+03
   2.860  0.2119E+02  0.2119E+02  0.4524E+03
   2.870  0.2165E+02  0.2165E+02  0.4528E+03
   2.880  0.2043E+02  0.2043E+02  0.4532E+03
   2.890  0.2024E+02  0.2024E+02  0.4536E+03
   2.900  0.1690E+02  0.1690E+02  0.4540E+03
   2.910  0.1727E+02  0.1727E+02  0.4543E+03
   2.920  0.1846E+02  0.1846E+02  0.4547E+03
   2.930  0.1972E+02  0.1972E+02  0.4551E+03
   2.940  0.2036E+02  0.2036E+02  0.4555E+03
   2.950  0.2059E+02  0.2059E+02  0.4559E+03
   2.960  0.2083E+02  0.2083E+02  0.4563E+03
   2.970  0.2119E+02  0.2119E+02  0.4567E+03
   2.980  0.2161E+02  0.2161E+02  0.4571E+03
   2.990  0.2188E+02  0.2188E+02  0.4576E+03
   3.000  0.2197E+02  0.2197E+02  0.4580E+03
   3.010  0.2196E+02  0.2196E+02  0.4585E+03
   3.020  0.2235E+02  0.2235E+02  0.4589E+03
   3.030  0.2394E+02  0.2394E+02  0.4594E+03
   3.040  0.2522E+02  0.2522E+02  0.4598E+03
   3.050  0.2350E+02  0.2350E+02  0.4604E+03
   3.060  0.2165E+02  0.2165E+02  0.4608E+03
   3.070  0.2176E+02  0.2176E+02  0.4612E+03
   3.080  0.2207E+02  0.2207E+02  0.4617E+03
   3.090  0.2296E+02  0.2296E+02  0.4621E+03
   3.100  0.2456E+02  0.2456E+02  0.4626E+03
   3.110  0.2637E+02  0.2637E+02  0.4631E+03
   3.120  0.2691E+02  0.2691E+02  0.4636E+03
   3.130  0.2591E+02  0.2591E+02  0.4642E+03
   3.140  0.2602E+02  0.2602E+02  0.4647E+03
   3.150  0.2672E+02  0.2672E+02  0.4652E+03
   3.160  0.2600E+02  0.2600E+02  0.4657E+03
   3.170  0.2499E+02  0.2499E+02  0.4663E+03
   3.180  0.2428E+02  0.2428E+02  0.4667E+03
   3.190  0.2407E+02  0.2407E+02  0.4672E+03
   3.200  0.2305E+02  0.2305E+02  0.4677E+03
   3.210  0.2323E+02  0.2323E+02  0.4682E+03
   3.220  0.2318E+02  0.2318E+02  0.4686E+03
   3.230  0.2166E+02  0.2166E+02  0.4691E+03
   3.240  0.1950E+02  0.1950E+02  0.4695E+03
   3.250  0.1975E+02  0.1975E+02  0.4699E+03
   3.260  0.1856E+02  0.1856E+02  0.4703E+03
   3.270  0.1733E+02  0.1733E+02  0.4706E+03
   3.280  0.1707E+02  0.1707E+02  0.4710E+03
   3.290  0.1823E+02  0.1823E+02  0.4713E+03
   3.300  0.1968E+02  0.1968E+02  0.4717E+03
   3.310  0.2172E+02  0.2172E+02  0.4721E+03
   3.320  0.2474E+02  0.2474E+02  0.4726E+03
   3.330  0.2733E+02  0.2733E+02  0.4731E+03
   3.340  0.2960E+02  0.2960E+02  0.4737E+03
   3.350  0.3162E+02  0.3162E+02  0.4743E+03
   3.360  0.3099E+02  0.3099E+02  0.4749E+03
   3.370  0.2987E+02  0.2987E+02  0.4755E+03
   3.380  0.3119E+02  0.3119E+02  0.4761E+03
   3.390  0.3267E+02  0.3267E+02  0.4768E+03
   3.400  0.3415E+02  0.3415E+02  0.4774E+03
   3.410  0.3499E+02  0.3499E+02  0.4781E+03
   3.420  0.3517E+02  0.3517E+02  0.4788E+03
   3.430  0.3461E+02  0.3461E+02  0.4795E+03
   3.440  0.3289E+02  0.3289E+02  0.4802E+03
   3.450  0.2842E+02  0.2842E+02  0.4808E+03
   3.460  0.2423E+02  0.2423E+02  0.4814E+03
   3.470  0.2599E+02  0.2599E+02  0.4818E+03
   3.480  0.2587E+02  0.2587E+02  0.4824E+03
   3.490  0.2752E+02  0.2752E+02  0.4829E+03
   3.500  0.2872E+02  0.2872E+02  0.4835E+03
   3.510  0.2946E+02  0.2946E+02  0.4840E+03
   3.520  0.2997E+02  0.2997E+02  0.4846E+03
   3.530  0.2999E+02  0.2999E+02  0.4852E+03
   3.540  0.3238E+02  0.3238E+02  0.4859E+03
   3.550  0.3383E+02  0.3383E+02  0.4865E+03
   3.560  0.3371E+02  0.3371E+02  0.4872E+03
   3.570  0.3432E+02  0.3432E+02  0.4879E+03
   3.580  0.3274E+02  0.3274E+02  0.4886E+03
   3.590  0.3200E+02  0.3200E+02  0.4892E+03
   3.600  0.3055E+02  0.3055E+02  0.4898E+03
   3.610  0.2783E+02  0.2783E+02  0.4904E+03
   3.620  0.2674E+02  0.2674E+02  0.4910E+03
   3.630  0.2965E+02  0.2965E+02  0.4915E+03
   3.640  0.3212E+02  0.3212E+02  0.4921E+03
   3.650  0.3549E+02  0.3549E+02  0.4928E+03
   3.660  0.3470E+02  0.3470E+02  0.4935E+03
   3.670  0.3177E+02  0.3177E+02  0.4942E+03
   3.680  0.2987E+02  0.2987E+02  0.4948E+03
   3.690  0.2827E+02  0.2827E+02  0.4954E+03
   3.700  0.2633E+02  0.2633E+02  0.4959E+03
   3.710  0.2522E+02  0.2522E+02  0.4964E+03
   3.720  0.2523E+02  0.2523E+02  0.4969E+03
   3.730  0.2640E+02  0.2640E+02  0.4975E+03
   3.740  0.2934E+02  0.2934E+02  0.4980E+03
   3.750  0.3712E+02  0.3712E+02  0.4987E+03
   3.760  0.3627E+02  0.3627E+02  0.4994E+03
   3.770  0.3260E+02  0.3260E+02  0.5001E+03
   3.780  0.2911E+02  0.2911E+02  0.5007E+03
   3.790  0.2650E+02  0.2650E+02  0.5013E+03
   3.800  0.2545E+02  0.2545E+02  0.5018E+03
   3.810  0.2476E+02  0.2476E+02  0.5023E+03
   3.820  0.2406E+02  0.2406E+02  0.5028E+03
   3.830  0.2369E+02  0.2369E+02  0.5033E+03
   3.840  0.2379E+02  0.2379E+02  0.5038E+03
   3.850  0.2474E+02  0.2474E+02  0.5042E+03
   3.860  0.2707E+02  0.2707E+02  0.5048E+03
   3.870  0.3102E+02  0.3102E+02  0.5053E+03
   3.880  0.3674E+02  0.3674E+02  0.5060E+03
   3.890  0.4020E+02  0.4020E+02  0.5068E+03
   3.900  0.3661E+02  0.3661E+02  0.5076E+03
   3.910  0.3516E+02  0.3516E+02  0.5083E+03
   3.920  0.3373E+02  0.3373E+02  0.5090E+03
   3.930  0.2968E+02  0.2968E+02  0.5096E+03
   3.940  0.2760E+02  0.2760E+02  0.5102E+03
   3.950  0.2681E+02  0.2681E+02  0.5107E+03
   3.960  0.2728E+02  0.2728E+02  0.5113E+03
   3.970  0.2791E+02  0.2791E+02  0.5118E+03
   3.980  0.2978E+02  0.2978E+02  0.5124E+03
   3.990  0.3060E+02  0.3060E+02  0.5130E+03
   4.000  0.3107E+02  0.3107E+02  0.5136E+03
   4.010  0.3016E+02  0.3016E+02  0.5142E+03
   4.020  0.2941E+02  0.2941E+02  0.5148E+03
   4.030  0.2904E+02  0.2904E+02  0.5154E+03
   4.040  0.2902E+02  0.2902E+02  0.5160E+03
   4.050  0.2896E+02  0.2896E+02  0.5166E+03
   4.060  0.2797E+02  0.2797E+02  0.5172E+03
   4.070  0.2769E+02  0.2769E+02  0.5177E+03
   4.080  0.2825E+02  0.2825E+02  0.5183E+03
   4.090  0.2749E+02  0.2749E+02  0.5188E+03
   4.100  0.2597E+02  0.2597E+02  0.5194E+03
   4.110  0.2552E+02  0.2552E+02  0.5199E+03
   4.120  0.2528E+02  0.2528E+02  0.5204E+03
   4.130  0.2568E+02  0.2568E+02  0.5209E+03
   4.140  0.2778E+02  0.2778E+02  0.5214E+03
   4.150  0.2801E+02  0.2801E+02  0.5220E+03
   4.160  0.2859E+02  0.2859E+02  0.5225E+03
   4.170  0.3037E+02  0.3037E+02  0.5231E+03
   4.180  0.3381E+02  0.3381E+02  0.5238E+03
   4.190  0.3529E+02  0.3529E+02  0.5245E+03
   4.200  0.3833E+02  0.3833E+02  0.5252E+03
   4.210  0.3607E+02  0.3607E+02  0.5259E+03
   4.220  0.3803E+02  0.3803E+02  0.5267E+03
   4.230  0.3655E+02  0.3655E+02  0.5275E+03
   4.240  0.3305E+02  0.3305E+02  0.5282E+03
   4.250  0.2968E+02  0.2968E+02  0.5288E+03
   4.260  0.2781E+02  0.2781E+02  0.5294E+03
   4.270  0.2664E+02  0.2664E+02  0.5299E+03
   4.280  0.2591E+02  0.2591E+02  0.5304E+03
   4.290  0.2564E+02  0.2564E+02  0.5310E+03
   4.300  0.2748E+02  0.2748E+02  0.5315E+03
   4.310  0.2939E+02  0.2939E+02  0.5320E+03
   4.320  0.3189E+02  0.3189E+02  0.5327E+03
   4.330  0.3351E+02  0.3351E+02  0.5333E+03
   4.340  0.3285E+02  0.3285E+02  0.5340E+03
   4.350  0.2894E+02  0.2894E+02  0.5346E+03
   4.360  0.2677E+02  0.2677E+02  0.5352E+03
   4.370  0.2550E+02  0.2550E+02  0.5357E+03
   4.380  0.2530E+02  0.2530E+02  0.5362E+03
   4.390  0.2576E+02  0.2576E+02  0.5367E+03
   4.400  0.2739E+02  0.2739E+02  0.5372E+03
   4.410  0.2714E+02  0.2714E+02  0.5378E+03
   4.420  0.2647E+02  0.2647E+02  0.5383E+03
   4.430  0.2430E+02  0.2430E+02  0.5388E+03
   4.440  0.2419E+02  0.2419E+02  0.5393E+03
   4.450  0.2763E+02  0.2763E+02  0.5398E+03
   4.460  0.3012E+02  0.3012E+02  0.5404E+03
   4.470  0.3201E+02  0.3201E+02  0.5410E+03
   4.480  0.3399E+02  0.3399E+02  0.5417E+03
   4.490  0.3571E+02  0.3571E+02  0.5424E+03
   4.500  0.3263E+02  0.3263E+02  0.5431E+03
   4.510  0.3233E+02  0.3233E+02  0.5437E+03
   4.520  0.2910E+02  0.2910E+02  0.5443E+03
   4.530  0.2600E+02  0.2600E+02  0.5449E+03
   4.540  0.2552E+02  0.2552E+02  0.5454E+03
   4.550  0.2618E+02  0.2618E+02  0.5459E+03
   4.560  0.2745E+02  0.2745E+02  0.5465E+03
   4.570  0.2890E+02  0.2890E+02  0.5470E+03
   4.580  0.2858E+02  0.2858E+02  0.5476E+03
   4.590  0.2841E+02  0.2841E+02  0.5482E+03
   4.600  0.2791E+02  0.2791E+02  0.5487E+03
   4.610  0.2744E+02  0.2744E+02  0.5493E+03
   4.620  0.2693E+02  0.2693E+02  0.5498E+03
   4.630  0.2667E+02  0.2667E+02  0.5504E+03
   4.640  0.2656E+02  0.2656E+02  0.5509E+03
   4.650  0.2674E+02  0.2674E+02  0.5514E+03
   4.660  0.2723E+02  0.2723E+02  0.5520E+03
   4.670  0.3706E+02  0.3706E+02  0.5526E+03
   4.680  0.3287E+02  0.3287E+02  0.5533E+03
   4.690  0.2992E+02  0.2992E+02  0.5539E+03
   4.700  0.3176E+02  0.3176E+02  0.5545E+03
   4.710  0.2628E+02  0.2628E+02  0.5551E+03
   4.720  0.2510E+02  0.2510E+02  0.5556E+03
   4.730  0.2677E+02  0.2677E+02  0.5561E+03
   4.740  0.3042E+02  0.3042E+02  0.5567E+03
   4.750  0.3992E+02  0.3992E+02  0.5574E+03
   4.760  0.3248E+02  0.3248E+02  0.5581E+03
   4.770  0.2603E+02  0.2603E+02  0.5587E+03
   4.780  0.2380E+02  0.2380E+02  0.5592E+03
   4.790  0.2223E+02  0.2223E+02  0.5596E+03
   4.800  0.2164E+02  0.2164E+02  0.5601E+03
   4.810  0.2085E+02  0.2085E+02  0.5605E+03
   4.820  0.2010E+02  0.2010E+02  0.5609E+03
   4.830  0.1861E+02  0.1861E+02  0.5613E+03
   4.840  0.1758E+02  0.1758E+02  0.5617E+03
   4.850  0.1707E+02  0.1707E+02  0.5620E+03
   4.860  0.1648E+02  0.1648E+02  0.5623E+03
   4.870  0.1596E+02  0.1596E+02  0.5627E+03
   4.880  0.1552E+02  0.1552E+02  0.5630E+03
   4.890  0.1523E+02  0.1523E+02  0.5633E+03
   4.900  0.1496E+02  0.1496E+02  0.5636E+03
   4.910  0.1472E+02  0.1472E+02  0.5639E+03
   4.920  0.1453E+02  0.1453E+02  0.5642E+03
   4.930  0.1458E+02  0.1458E+02  0.5645E+03
   4.940  0.1517E+02  0.1517E+02  0.5648E+03
   4.950  0.1610E+02  0.1610E+02  0.5651E+03
   4.960  0.1691E+02  0.1691E+02  0.5654E+03
   4.970  0.1672E+02  0.1672E+02  0.5657E+03
   4.980  0.1525E+02  0.1525E+02  0.5661E+03
   4.990  0.1425E+02  0.1425E+02  0.5664E+03
   5.000  0.1454E+02  0.1454E+02  0.5666E+03
   5.010  0.1433E+02  0.1433E+02  0.5669E+03
   5.020  0.1503E+02  0.1503E+02  0.5672E+03
   5.030  0.1554E+02  0.1554E+02  0.5675E+03
   5.040  0.1428E+02  0.1428E+02  0.5678E+03
   5.050  0.1449E+02  0.1449E+02  0.5681E+03
   5.060  0.1469E+02  0.1469E+02  0.5684E+03
   5.070  0.1475E+02  0.1475E+02  0.5687E+03
   5.080  0.1467E+02  0.1467E+02  0.5690E+03
   5.090  0.1434E+02  0.1434E+02  0.5693E+03
   5.100  0.1362E+02  0.1362E+02  0.5696E+03
   5.110  0.1214E+02  0.1214E+02  0.5698E+03
   5.120  0.1017E+02  0.1017E+02  0.5700E+03
   5.130  0.1020E+02  0.1020E+02  0.5703E+03
   5.140  0.1026E+02  0.1026E+02  0.5705E+03
   5.150  0.9951E+01  0.9951E+01  0.5707E+03
   5.160  0.9521E+01  0.9521E+01  0.5709E+03
   5.170  0.9402E+01  0.9402E+01  0.5710E+03
   5.180  0.7205E+01  0.7205E+01  0.5712E+03
   5.190  0.6741E+01  0.6741E+01  0.5713E+03
   5.200  0.6520E+01  0.6520E+01  0.5715E+03
   5.210  0.6564E+01  0.6564E+01  0.5716E+03
   5.220  0.7779E+01  0.7779E+01  0.5717E+03
   5.230  0.8956E+01  0.8956E+01  0.5719E+03
   5.240  0.9963E+01  0.9963E+01  0.5721E+03
   5.250  0.1069E+02  0.1069E+02  0.5723E+03
   5.260  0.1129E+02  0.1129E+02  0.5725E+03
   5.270  0.1168E+02  0.1168E+02  0.5728E+03
   5.280  0.1186E+02  0.1186E+02  0.5730E+03
   5.290  0.1183E+02  0.1183E+02  0.5732E+03
   5.300  0.1154E+02  0.1154E+02  0.5735E+03
   5.310  0.1104E+02  0.1104E+02  0.5737E+03
   5.320  0.9748E+01  0.9748E+01  0.5739E+03
   5.330  0.9166E+01  0.9166E+01  0.5741E+03
   5.340  0.9046E+01  0.9046E+01  0.5743E+03
   5.350  0.7898E+01  0.7898E+01  0.5744E+03
   5.360  0.6412E+01  0.6412E+01  0.5746E+03
   5.370  0.5442E+01  0.5442E+01  0.5747E+03
   5.380  0.5077E+01  0.5077E+01  0.5748E+03
   5.390  0.4767E+01  0.4767E+01  0.5749E+03
   5.400  0.4508E+01  0.4508E+01  0.5750E+03
   5.410  0.4299E+01  0.4299E+01  0.5751E+03
   5.420  0.4144E+01  0.4144E+01  0.5752E+03
   5.430  0.4776E+01  0.4776E+01  0.5753E+03
   5.440  0.5156E+01  0.5156E+01  0.5754E+03
   5.450  0.4770E+01  0.4770E+01  0.5755E+03
   5.460  0.4467E+01  0.4467E+01  0.5756E+03
   5.470  0.3862E+01  0.3862E+01  0.5756E+03
   5.480  0.3362E+01  0.3362E+01  0.5757E+03
   5.490  0.2955E+01  0.2955E+01  0.5758E+03
   5.500  0.2541E+01  0.2541E+01  0.5758E+03
   5.510  0.2571E+01  0.2571E+01  0.5759E+03
   5.520  0.2341E+01  0.2341E+01  0.5759E+03
   5.530  0.1515E+01  0.1515E+01  0.5760E+03
   5.540  0.3857E+00  0.3857E+00  0.5760E+03
   5.550  0.8683E-01  0.8684E-01  0.5760E+03
   5.560  0.7516E-02  0.7517E-02  0.5760E+03
   5.570  0.1317E-02  0.1317E-02  0.5760E+03
   5.580  0.3967E-03  0.3967E-03  0.5760E+03
   5.590  0.1646E-04  0.1647E-04  0.5760E+03
   5.600  0.0000E+00  0.0000E+00  0.5760E+03
   5.610  0.0000E+00  0.0000E+00  0.5760E+03
   5.620  0.0000E+00  0.0000E+00  0.5760E+03
   5.630  0.0000E+00  0.0000E+00  0.5760E+03
   5.640  0.0000E+00  0.0000E+00  0.5760E+03
   5.650  0.0000E+00  0.0000E+00  0.5760E+03
   5.660  0.0000E+00  0.0000E+00  0.5760E+03
   5.670  0.0000E+00  0.0000E+00  0.5760E+03
   5.680  0.0000E+00  0.0000E+00  0.5760E+03
   5.690  0.0000E+00  0.0000E+00  0.5760E+03
   5.700  0.0000E+00  0.0000E+00  0.5760E+03
   5.710  0.0000E+00  0.0000E+00  0.5760E+03
   5.720  0.0000E+00  0.0000E+00  0.5760E+03
   5.730  0.0000E+00  0.0000E+00  0.5760E+03
   5.740  0.0000E+00  0.0000E+00  0.5760E+03
   5.750  0.0000E+00  0.0000E+00  0.5760E+03
   5.760  0.0000E+00  0.0000E+00  0.5760E+03
   5.770  0.0000E+00  0.0000E+00  0.5760E+03
   5.780  0.0000E+00  0.0000E+00  0.5760E+03
   5.790  0.0000E+00  0.0000E+00  0.5760E+03
   5.800  0.0000E+00  0.0000E+00  0.5760E+03
   5.810  0.0000E+00  0.0000E+00  0.5760E+03
   5.820  0.0000E+00  0.0000E+00  0.5760E+03
   5.830  0.0000E+00  0.0000E+00  0.5760E+03
   5.840  0.0000E+00  0.0000E+00  0.5760E+03
   5.850  0.0000E+00  0.0000E+00  0.5760E+03
   5.860  0.0000E+00  0.0000E+00  0.5760E+03
   5.870  0.0000E+00  0.0000E+00  0.5760E+03
   5.880  0.0000E+00  0.0000E+00  0.5760E+03
   5.890  0.0000E+00  0.0000E+00  0.5760E+03
   5.900  0.0000E+00  0.0000E+00  0.5760E+03
   5.910  0.0000E+00  0.0000E+00  0.5760E+03
   5.920  0.0000E+00  0.0000E+00  0.5760E+03
   5.930  0.0000E+00  0.0000E+00  0.5760E+03
   5.940  0.0000E+00  0.0000E+00  0.5760E+03
   5.950  0.0000E+00  0.0000E+00  0.5760E+03
   5.960  0.0000E+00  0.0000E+00  0.5760E+03
   5.970  0.0000E+00  0.0000E+00  0.5760E+03
   5.980  0.0000E+00  0.0000E+00  0.5760E+03
   5.990  0.0000E+00  0.0000E+00  0.5760E+03
   6.000  0.0000E+00  0.0000E+00  0.5760E+03
   6.010  0.0000E+00  0.0000E+00  0.5760E+03
   6.020  0.0000E+00  0.0000E+00  0.5760E+03
   6.030  0.0000E+00  0.0000E+00  0.5760E+03
   6.040  0.0000E+00  0.0000E+00  0.5760E+03
   6.050  0.0000E+00  0.0000E+00  0.5760E+03
   6.060  0.0000E+00  0.0000E+00  0.5760E+03
   6.070  0.0000E+00  0.0000E+00  0.5760E+03
   6.080  0.0000E+00  0.0000E+00  0.5760E+03
   6.090  0.0000E+00  0.0000E+00  0.5760E+03
   6.100  0.0000E+00  0.0000E+00  0.5760E+03
   6.110  0.0000E+00  0.0000E+00  0.5760E+03
   6.120  0.0000E+00  0.0000E+00  0.5760E+03
   6.130  0.0000E+00  0.0000E+00  0.5760E+03
   6.140  0.0000E+00  0.0000E+00  0.5760E+03
   6.150  0.0000E+00  0.0000E+00  0.5760E+03
   6.160  0.0000E+00  0.0000E+00  0.5760E+03
   6.170  0.0000E+00  0.0000E+00  0.5760E+03
   6.180  0.0000E+00  0.0000E+00  0.5760E+03
   6.190  0.0000E+00  0.0000E+00  0.5760E+03
   6.200  0.0000E+00  0.0000E+00  0.5760E+03
   6.210  0.0000E+00  0.0000E+00  0.5760E+03
   6.220  0.0000E+00  0.0000E+00  0.5760E+03
   6.230  0.0000E+00  0.0000E+00  0.5760E+03
   6.240  0.0000E+00  0.0000E+00  0.5760E+03
   6.250  0.0000E+00  0.0000E+00  0.5760E+03
   6.260  0.0000E+00  0.0000E+00  0.5760E+03
   6.270  0.0000E+00  0.0000E+00  0.5760E+03
   6.280  0.0000E+00  0.0000E+00  0.5760E+03
   6.290  0.0000E+00  0.0000E+00  0.5760E+03
   6.300  0.0000E+00  0.0000E+00  0.5760E+03
   6.310  0.0000E+00  0.0000E+00  0.5760E+03
   6.320  0.0000E+00  0.0000E+00  0.5760E+03
   6.330  0.0000E+00  0.0000E+00  0.5760E+03
   6.340  0.0000E+00  0.0000E+00  0.5760E+03
   6.350  0.0000E+00  0.0000E+00  0.5760E+03
   6.360  0.0000E+00  0.0000E+00  0.5760E+03
   6.370  0.0000E+00  0.0000E+00  0.5760E+03
   6.380  0.0000E+00  0.0000E+00  0.5760E+03
   6.390  0.0000E+00  0.0000E+00  0.5760E+03
   6.400  0.0000E+00  0.0000E+00  0.5760E+03
   6.410  0.0000E+00  0.0000E+00  0.5760E+03
   6.420  0.0000E+00  0.0000E+00  0.5760E+03
   6.430  0.0000E+00  0.0000E+00  0.5760E+03
   6.440  0.0000E+00  0.0000E+00  0.5760E+03
   6.450  0.0000E+00  0.0000E+00  0.5760E+03
   6.460  0.0000E+00  0.0000E+00  0.5760E+03
   6.470  0.0000E+00  0.0000E+00  0.5760E+03
   6.480  0.0000E+00  0.0000E+00  0.5760E+03
   6.490  0.0000E+00  0.0000E+00  0.5760E+03
   6.500  0.0000E+00  0.0000E+00  0.5760E+03
   6.510  0.0000E+00  0.0000E+00  0.5760E+03
   6.520  0.0000E+00  0.0000E+00  0.5760E+03
   6.530  0.0000E+00  0.0000E+00  0.5760E+03
   6.540  0.0000E+00  0.0000E+00  0.5760E+03
   6.550  0.0000E+00  0.0000E+00  0.5760E+03
   6.560  0.0000E+00  0.0000E+00  0.5760E+03
   6.570  0.0000E+00  0.0000E+00  0.5760E+03
   6.580  0.0000E+00  0.0000E+00  0.5760E+03
   6.590  0.0000E+00  0.0000E+00  0.5760E+03
   6.600  0.0000E+00  0.0000E+00  0.5760E+03
   6.610  0.0000E+00  0.0000E+00  0.5760E+03
   6.620  0.0000E+00  0.0000E+00  0.5760E+03
   6.630  0.0000E+00  0.0000E+00  0.5760E+03
   6.640  0.0000E+00  0.0000E+00  0.5760E+03
   6.650  0.0000E+00  0.0000E+00  0.5760E+03
   6.660  0.0000E+00  0.0000E+00  0.5760E+03
   6.670  0.0000E+00  0.0000E+00  0.5760E+03
   6.680  0.0000E+00  0.0000E+00  0.5760E+03
   6.690  0.0000E+00  0.0000E+00  0.5760E+03
   6.700  0.0000E+00  0.0000E+00  0.5760E+03
   6.710  0.0000E+00  0.0000E+00  0.5760E+03
   6.720  0.0000E+00  0.0000E+00  0.5760E+03
   6.730  0.0000E+00  0.0000E+00  0.5760E+03
   6.740  0.0000E+00  0.0000E+00  0.5760E+03
   6.750  0.0000E+00  0.0000E+00  0.5760E+03
   6.760  0.0000E+00  0.0000E+00  0.5760E+03
   6.770  0.0000E+00  0.0000E+00  0.5760E+03
   6.780  0.0000E+00  0.0000E+00  0.5760E+03
   6.790  0.0000E+00  0.0000E+00  0.5760E+03
   6.800  0.0000E+00  0.0000E+00  0.5760E+03
   6.810  0.0000E+00  0.0000E+00  0.5760E+03
   6.820  0.0000E+00  0.0000E+00  0.5760E+03
   6.830  0.0000E+00  0.0000E+00  0.5760E+03
   6.840  0.0000E+00  0.0000E+00  0.5760E+03
   6.850  0.0000E+00  0.0000E+00  0.5760E+03
   6.860  0.0000E+00  0.0000E+00  0.5760E+03
   6.870  0.0000E+00  0.0000E+00  0.5760E+03
   6.880  0.0000E+00  0.0000E+00  0.5760E+03
   6.890  0.0000E+00  0.0000E+00  0.5760E+03
   6.900  0.0000E+00  0.0000E+00  0.5760E+03
   6.910  0.0000E+00  0.0000E+00  0.5760E+03
   6.920  0.0000E+00  0.0000E+00  0.5760E+03
   6.930  0.0000E+00  0.0000E+00  0.5760E+03
   6.940  0.0000E+00  0.0000E+00  0.5760E+03
   6.950  0.0000E+00  0.0000E+00  0.5760E+03
   6.960  0.0000E+00  0.0000E+00  0.5760E+03
   6.970  0.0000E+00  0.0000E+00  0.5760E+03
   6.980  0.0000E+00  0.0000E+00  0.5760E+03
   6.990  0.0000E+00  0.0000E+00  0.5760E+03
   7.000  0.0000E+00  0.0000E+00  0.5760E+03
   7.010  0.0000E+00  0.0000E+00  0.5760E+03
   7.020  0.0000E+00  0.0000E+00  0.5760E+03
   7.030  0.0000E+00  0.0000E+00  0.5760E+03
   7.040  0.0000E+00  0.0000E+00  0.5760E+03
   7.050  0.0000E+00  0.0000E+00  0.5760E+03
   7.060  0.0000E+00  0.0000E+00  0.5760E+03
   7.070  0.0000E+00  0.0000E+00  0.5760E+03
   7.080  0.0000E+00  0.0000E+00  0.5760E+03
   7.090  0.0000E+00  0.0000E+00  0.5760E+03
   7.100  0.0000E+00  0.0000E+00  0.5760E+03
   7.110  0.0000E+00  0.0000E+00  0.5760E+03
   7.120  0.0000E+00  0.0000E+00  0.5760E+03
   7.130  0.0000E+00  0.0000E+00  0.5760E+03
   7.140  0.0000E+00  0.0000E+00  0.5760E+03
   7.150  0.0000E+00  0.0000E+00  0.5760E+03
   7.160  0.0000E+00  0.0000E+00  0.5760E+03
   7.170  0.0000E+00  0.0000E+00  0.5760E+03
   7.180  0.0000E+00  0.0000E+00  0.5760E+03
   7.190  0.0000E+00  0.0000E+00  0.5760E+03
   7.200  0.0000E+00  0.0000E+00  0.5760E+03
   7.210  0.0000E+00  0.0000E+00  0.5760E+03
   7.220  0.0000E+00  0.0000E+00  0.5760E+03
   7.230  0.0000E+00  0.0000E+00  0.5760E+03
   7.240  0.0000E+00  0.0000E+00  0.5760E+03
   7.250  0.0000E+00  0.0000E+00  0.5760E+03
   7.260  0.0000E+00  0.0000E+00  0.5760E+03
   7.270  0.0000E+00  0.0000E+00  0.5760E+03
   7.280  0.0000E+00  0.0000E+00  0.5760E+03
   7.290  0.0000E+00  0.0000E+00  0.5760E+03
   7.300  0.0000E+00  0.0000E+00  0.5760E+03
   7.310  0.0000E+00  0.0000E+00  0.5760E+03
   7.320  0.0000E+00  0.0000E+00  0.5760E+03
   7.330  0.0000E+00  0.0000E+00  0.5760E+03
   7.340  0.0000E+00  0.0000E+00  0.5760E+03
   7.350  0.0000E+00  0.0000E+00  0.5760E+03
   7.360  0.0000E+00  0.0000E+00  0.5760E+03
   7.370  0.0000E+00  0.0000E+00  0.5760E+03
   7.380  0.0000E+00  0.0000E+00  0.5760E+03
   7.390  0.0000E+00  0.0000E+00  0.5760E+03
   7.400  0.0000E+00  0.0000E+00  0.5760E+03
   7.410  0.0000E+00  0.0000E+00  0.5760E+03
   7.420  0.0000E+00  0.0000E+00  0.5760E+03
   7.430  0.0000E+00  0.0000E+00  0.5760E+03
   7.440  0.0000E+00  0.0000E+00  0.5760E+03
   7.450  0.0000E+00  0.0000E+00  0.5760E+03
   7.460  0.0000E+00  0.0000E+00  0.5760E+03
   7.470  0.7779E-06  0.7782E-06  0.5760E+03
   7.480  0.7777E-04  0.7777E-04  0.5760E+03
   7.490  0.2807E-03  0.2807E-03  0.5760E+03
   7.500  0.6265E-03  0.6265E-03  0.5760E+03
   7.510  0.1475E-02  0.1475E-02  0.5760E+03
   7.520  0.2971E-02  0.2971E-02  0.5760E+03
   7.530  0.5116E-02  0.5116E-02  0.5760E+03
   7.540  0.7908E-02  0.7908E-02  0.5760E+03
   7.550  0.1135E-01  0.1135E-01  0.5760E+03
   7.560  0.1544E-01  0.1544E-01  0.5760E+03
   7.570  0.2017E-01  0.2017E-01  0.5760E+03
   7.580  0.2556E-01  0.2556E-01  0.5760E+03
   7.590  0.3159E-01  0.3159E-01  0.5760E+03
   7.600  0.3827E-01  0.3827E-01  0.5760E+03
   7.610  0.4560E-01  0.4560E-01  0.5760E+03
   7.620  0.5358E-01  0.5358E-01  0.5760E+03
   7.630  0.6220E-01  0.6220E-01  0.5760E+03
   7.640  0.7147E-01  0.7147E-01  0.5760E+03
   7.650  0.8139E-01  0.8139E-01  0.5760E+03
   7.660  0.9196E-01  0.9196E-01  0.5760E+03
   7.670  0.1022E+00  0.1022E+00  0.5760E+03
   7.680  0.1123E+00  0.1123E+00  0.5760E+03
   7.690  0.1229E+00  0.1229E+00  0.5760E+03
   7.700  0.1344E+00  0.1344E+00  0.5760E+03
   7.710  0.1456E+00  0.1456E+00  0.5760E+03
   7.720  0.1562E+00  0.1562E+00  0.5760E+03
   7.730  0.1664E+00  0.1664E+00  0.5760E+03
   7.740  0.1761E+00  0.1761E+00  0.5760E+03
   7.750  0.1855E+00  0.1855E+00  0.5760E+03
   7.760  0.1944E+00  0.1944E+00  0.5760E+03
   7.770  0.2029E+00  0.2029E+00  0.5760E+03
   7.780  0.2109E+00  0.2109E+00  0.5760E+03
   7.790  0.2186E+00  0.2186E+00  0.5761E+03
   7.800  0.2258E+00  0.2258E+00  0.5761E+03
   7.810  0.2326E+00  0.2326E+00  0.5761E+03
   7.820  0.2390E+00  0.2390E+00  0.5761E+03
   7.830  0.2448E+00  0.2448E+00  0.5761E+03
   7.840  0.2491E+00  0.2491E+00  0.5761E+03
   7.850  0.2527E+00  0.2527E+00  0.5761E+03
   7.860  0.2559E+00  0.2559E+00  0.5761E+03
   7.870  0.2603E+00  0.2603E+00  0.5761E+03
   7.880  0.2648E+00  0.2648E+00  0.5761E+03
   7.890  0.2696E+00  0.2696E+00  0.5761E+03
   7.900  0.2750E+00  0.2750E+00  0.5761E+03
   7.910  0.2807E+00  0.2807E+00  0.5761E+03
   7.920  0.2870E+00  0.2870E+00  0.5761E+03
   7.930  0.2937E+00  0.2937E+00  0.5761E+03
   7.940  0.3008E+00  0.3008E+00  0.5761E+03
   7.950  0.3085E+00  0.3085E+00  0.5761E+03
   7.960  0.3165E+00  0.3165E+00  0.5761E+03
   7.970  0.3251E+00  0.3251E+00  0.5761E+03
   7.980  0.3338E+00  0.3338E+00  0.5762E+03
   7.990  0.3429E+00  0.3429E+00  0.5762E+03
   8.000  0.3522E+00  0.3522E+00  0.5762E+03
   8.010  0.3615E+00  0.3615E+00  0.5762E+03
   8.020  0.3710E+00  0.3710E+00  0.5762E+03
   8.030  0.3805E+00  0.3805E+00  0.5762E+03
   8.040  0.3903E+00  0.3903E+00  0.5762E+03
   8.050  0.4001E+00  0.4001E+00  0.5762E+03
   8.060  0.4102E+00  0.4102E+00  0.5762E+03
   8.070  0.4204E+00  0.4204E+00  0.5762E+03
   8.080  0.4307E+00  0.4307E+00  0.5762E+03
   8.090  0.4412E+00  0.4412E+00  0.5762E+03
   8.100  0.4518E+00  0.4518E+00  0.5762E+03
   8.110  0.4626E+00  0.4626E+00  0.5763E+03
   8.120  0.4735E+00  0.4735E+00  0.5763E+03
   8.130  0.4846E+00  0.4846E+00  0.5763E+03
   8.140  0.4962E+00  0.4962E+00  0.5763E+03
   8.150  0.5080E+00  0.5080E+00  0.5763E+03
   8.160  0.5193E+00  0.5193E+00  0.5763E+03
   8.170  0.5292E+00  0.5292E+00  0.5763E+03
   8.180  0.5366E+00  0.5366E+00  0.5763E+03
   8.190  0.5422E+00  0.5422E+00  0.5763E+03
   8.200  0.5471E+00  0.5471E+00  0.5763E+03
   8.210  0.5516E+00  0.5516E+00  0.5764E+03
   8.220  0.5555E+00  0.5555E+00  0.5764E+03
   8.230  0.5594E+00  0.5594E+00  0.5764E+03
   8.240  0.5622E+00  0.5622E+00  0.5764E+03
   8.250  0.5682E+00  0.5682E+00  0.5764E+03
   8.260  0.5768E+00  0.5768E+00  0.5764E+03
   8.270  0.5880E+00  0.5880E+00  0.5764E+03
   8.280  0.6002E+00  0.6002E+00  0.5764E+03
   8.290  0.6118E+00  0.6118E+00  0.5765E+03
   8.300  0.6186E+00  0.6186E+00  0.5765E+03
   8.310  0.6231E+00  0.6231E+00  0.5765E+03
   8.320  0.6274E+00  0.6274E+00  0.5765E+03
   8.330  0.6358E+00  0.6358E+00  0.5765E+03
   8.340  0.6464E+00  0.6464E+00  0.5765E+03
   8.350  0.6570E+00  0.6570E+00  0.5765E+03
   8.360  0.6676E+00  0.6676E+00  0.5765E+03
   8.370  0.6783E+00  0.6783E+00  0.5766E+03
   8.380  0.6892E+00  0.6892E+00  0.5766E+03
   8.390  0.7002E+00  0.7002E+00  0.5766E+03
   8.400  0.7113E+00  0.7113E+00  0.5766E+03
   8.410  0.7228E+00  0.7228E+00  0.5766E+03
   8.420  0.7346E+00  0.7346E+00  0.5766E+03
   8.430  0.7468E+00  0.7468E+00  0.5766E+03
   8.440  0.7595E+00  0.7595E+00  0.5767E+03
   8.450  0.7725E+00  0.7725E+00  0.5767E+03
   8.460  0.7859E+00  0.7859E+00  0.5767E+03
   8.470  0.7997E+00  0.7997E+00  0.5767E+03
   8.480  0.8139E+00  0.8139E+00  0.5767E+03
   8.490  0.8285E+00  0.8285E+00  0.5767E+03
   8.500  0.8436E+00  0.8436E+00  0.5768E+03
   8.510  0.8581E+00  0.8581E+00  0.5768E+03
   8.520  0.8690E+00  0.8690E+00  0.5768E+03
   8.530  0.8768E+00  0.8768E+00  0.5768E+03
   8.540  0.8811E+00  0.8811E+00  0.5768E+03
   8.550  0.8889E+00  0.8889E+00  0.5768E+03
   8.560  0.9037E+00  0.9037E+00  0.5769E+03
   8.570  0.9207E+00  0.9207E+00  0.5769E+03
   8.580  0.9397E+00  0.9397E+00  0.5769E+03
   8.590  0.9593E+00  0.9593E+00  0.5769E+03
   8.600  0.9799E+00  0.9799E+00  0.5769E+03
   8.610  0.1002E+01  0.1002E+01  0.5770E+03
   8.620  0.1027E+01  0.1027E+01  0.5770E+03
   8.630  0.1053E+01  0.1053E+01  0.5770E+03
   8.640  0.1082E+01  0.1082E+01  0.5770E+03
   8.650  0.1113E+01  0.1113E+01  0.5770E+03
   8.660  0.1146E+01  0.1146E+01  0.5771E+03
   8.670  0.1181E+01  0.1181E+01  0.5771E+03
   8.680  0.1217E+01  0.1217E+01  0.5771E+03
   8.690  0.1253E+01  0.1253E+01  0.5771E+03
   8.700  0.1291E+01  0.1291E+01  0.5772E+03
   8.710  0.1332E+01  0.1332E+01  0.5772E+03
   8.720  0.1388E+01  0.1388E+01  0.5772E+03
   8.730  0.1464E+01  0.1464E+01  0.5772E+03
   8.740  0.1558E+01  0.1558E+01  0.5773E+03
   8.750  0.1662E+01  0.1662E+01  0.5773E+03
   8.760  0.1778E+01  0.1778E+01  0.5773E+03
   8.770  0.1878E+01  0.1878E+01  0.5774E+03
   8.780  0.1982E+01  0.1982E+01  0.5774E+03
   8.790  0.2101E+01  0.2101E+01  0.5775E+03
   8.800  0.2237E+01  0.2237E+01  0.5775E+03
   8.810  0.2419E+01  0.2419E+01  0.5775E+03
   8.820  0.2640E+01  0.2640E+01  0.5776E+03
   8.830  0.2910E+01  0.2910E+01  0.5776E+03
   8.840  0.3233E+01  0.3233E+01  0.5777E+03
   8.850  0.3591E+01  0.3591E+01  0.5778E+03
   8.860  0.4113E+01  0.4113E+01  0.5779E+03
   8.870  0.5025E+01  0.5025E+01  0.5779E+03
   8.880  0.5363E+01  0.5363E+01  0.5780E+03
   8.890  0.6975E+01  0.6975E+01  0.5782E+03
   8.900  0.6813E+01  0.6813E+01  0.5783E+03
   8.910  0.6965E+01  0.6965E+01  0.5785E+03
   8.920  0.7324E+01  0.7324E+01  0.5786E+03
   8.930  0.7483E+01  0.7483E+01  0.5787E+03
   8.940  0.7741E+01  0.7741E+01  0.5789E+03
   8.950  0.7895E+01  0.7895E+01  0.5791E+03
   8.960  0.7882E+01  0.7882E+01  0.5792E+03
   8.970  0.7934E+01  0.7934E+01  0.5794E+03
   8.980  0.8005E+01  0.8005E+01  0.5795E+03
   8.990  0.6830E+01  0.6830E+01  0.5797E+03
   9.000  0.6515E+01  0.6515E+01  0.5798E+03
   9.010  0.6479E+01  0.6479E+01  0.5799E+03
   9.020  0.6527E+01  0.6527E+01  0.5801E+03
   9.030  0.6592E+01  0.6592E+01  0.5802E+03
   9.040  0.6667E+01  0.6667E+01  0.5803E+03
   9.050  0.6758E+01  0.6758E+01  0.5805E+03
   9.060  0.6913E+01  0.6913E+01  0.5806E+03
   9.070  0.7197E+01  0.7197E+01  0.5807E+03
   9.080  0.7337E+01  0.7337E+01  0.5809E+03
   9.090  0.7249E+01  0.7249E+01  0.5810E+03
   9.100  0.7268E+01  0.7268E+01  0.5812E+03
   9.110  0.7401E+01  0.7401E+01  0.5813E+03
   9.120  0.7568E+01  0.7568E+01  0.5815E+03
   9.130  0.7573E+01  0.7573E+01  0.5816E+03
   9.140  0.7887E+01  0.7887E+01  0.5818E+03
   9.150  0.8267E+01  0.8267E+01  0.5819E+03
   9.160  0.8658E+01  0.8658E+01  0.5821E+03
   9.170  0.8957E+01  0.8957E+01  0.5823E+03
   9.180  0.9399E+01  0.9399E+01  0.5825E+03
   9.190  0.9904E+01  0.9904E+01  0.5827E+03
   9.200  0.1042E+02  0.1042E+02  0.5829E+03
   9.210  0.1102E+02  0.1102E+02  0.5831E+03
   9.220  0.1169E+02  0.1169E+02  0.5833E+03
   9.230  0.1244E+02  0.1244E+02  0.5836E+03
   9.240  0.1302E+02  0.1302E+02  0.5838E+03
   9.250  0.1351E+02  0.1351E+02  0.5841E+03
   9.260  0.1395E+02  0.1395E+02  0.5843E+03
   9.270  0.1434E+02  0.1434E+02  0.5846E+03
   9.280  0.1467E+02  0.1467E+02  0.5849E+03
   9.290  0.1486E+02  0.1486E+02  0.5852E+03
   9.300  0.1585E+02  0.1585E+02  0.5855E+03
   9.310  0.1236E+02  0.1236E+02  0.5858E+03
   9.320  0.1200E+02  0.1200E+02  0.5860E+03
   9.330  0.1185E+02  0.1185E+02  0.5863E+03
   9.340  0.1186E+02  0.1186E+02  0.5865E+03
   9.350  0.1198E+02  0.1198E+02  0.5867E+03
   9.360  0.1228E+02  0.1228E+02  0.5870E+03
   9.370  0.1278E+02  0.1278E+02  0.5872E+03
   9.380  0.1358E+02  0.1358E+02  0.5875E+03
   9.390  0.1447E+02  0.1447E+02  0.5878E+03
   9.400  0.1621E+02  0.1621E+02  0.5881E+03
   9.410  0.1882E+02  0.1882E+02  0.5884E+03
   9.420  0.2083E+02  0.2083E+02  0.5888E+03
   9.430  0.2155E+02  0.2155E+02  0.5893E+03
   9.440  0.2091E+02  0.2091E+02  0.5897E+03
   9.450  0.1680E+02  0.1680E+02  0.5901E+03
   9.460  0.1425E+02  0.1425E+02  0.5904E+03
   9.470  0.1333E+02  0.1333E+02  0.5907E+03
   9.480  0.1301E+02  0.1301E+02  0.5909E+03
   9.490  0.1272E+02  0.1272E+02  0.5912E+03
   9.500  0.1511E+02  0.1511E+02  0.5915E+03
   9.510  0.1098E+02  0.1098E+02  0.5917E+03
   9.520  0.9756E+01  0.9756E+01  0.5919E+03
   9.530  0.8943E+01  0.8943E+01  0.5921E+03
   9.540  0.8879E+01  0.8879E+01  0.5923E+03
   9.550  0.9166E+01  0.9166E+01  0.5925E+03
   9.560  0.9722E+01  0.9722E+01  0.5926E+03
   9.570  0.1051E+02  0.1051E+02  0.5929E+03
   9.580  0.1148E+02  0.1148E+02  0.5931E+03
   9.590  0.1258E+02  0.1258E+02  0.5933E+03
   9.600  0.1370E+02  0.1370E+02  0.5936E+03
   9.610  0.1539E+02  0.1539E+02  0.5939E+03
   9.620  0.1771E+02  0.1771E+02  0.5942E+03
   9.630  0.1891E+02  0.1891E+02  0.5946E+03
   9.640  0.1998E+02  0.1998E+02  0.5950E+03
   9.650  0.2095E+02  0.2095E+02  0.5954E+03
   9.660  0.2205E+02  0.2205E+02  0.5958E+03
   9.670  0.2241E+02  0.2241E+02  0.5962E+03
   9.680  0.2278E+02  0.2278E+02  0.5967E+03
   9.690  0.2515E+02  0.2515E+02  0.5972E+03
   9.700  0.2556E+02  0.2556E+02  0.5977E+03
   9.710  0.3205E+02  0.3205E+02  0.5982E+03
   9.720  0.3735E+02  0.3735E+02  0.5989E+03
   9.730  0.3259E+02  0.3259E+02  0.5996E+03
   9.740  0.3204E+02  0.3204E+02  0.6003E+03
   9.750  0.3046E+02  0.3046E+02  0.6009E+03
   9.760  0.2814E+02  0.2814E+02  0.6015E+03
   9.770  0.2498E+02  0.2498E+02  0.6020E+03
   9.780  0.2222E+02  0.2222E+02  0.6025E+03
   9.790  0.2014E+02  0.2014E+02  0.6029E+03
   9.800  0.1972E+02  0.1972E+02  0.6033E+03
   9.810  0.2035E+02  0.2035E+02  0.6037E+03
   9.820  0.2181E+02  0.2181E+02  0.6041E+03
   9.830  0.2358E+02  0.2358E+02  0.6046E+03
   9.840  0.2489E+02  0.2489E+02  0.6051E+03
   9.850  0.2655E+02  0.2655E+02  0.6056E+03
   9.860  0.2636E+02  0.2636E+02  0.6061E+03
   9.870  0.2643E+02  0.2643E+02  0.6066E+03
   9.880  0.2610E+02  0.2610E+02  0.6072E+03
   9.890  0.2661E+02  0.2661E+02  0.6077E+03
   9.900  0.2814E+02  0.2814E+02  0.6082E+03
   9.910  0.3052E+02  0.3052E+02  0.6088E+03
   9.920  0.3222E+02  0.3222E+02  0.6095E+03
   9.930  0.3187E+02  0.3187E+02  0.6101E+03
   9.940  0.3443E+02  0.3443E+02  0.6108E+03
   9.950  0.3565E+02  0.3565E+02  0.6115E+03
   9.960  0.3880E+02  0.3880E+02  0.6122E+03
   9.970  0.4062E+02  0.4062E+02  0.6130E+03
   9.980  0.4320E+02  0.4320E+02  0.6138E+03
   9.990  0.4054E+02  0.4054E+02  0.6147E+03
  10.000  0.3803E+02  0.3803E+02  0.6155E+03
  10.010  0.3656E+02  0.3656E+02  0.6162E+03
  10.020  0.3448E+02  0.3448E+02  0.6169E+03
  10.030  0.3346E+02  0.3346E+02  0.6176E+03
  10.040  0.3252E+02  0.3252E+02  0.6183E+03
  10.050  0.3116E+02  0.3116E+02  0.6189E+03
  10.060  0.3015E+02  0.3015E+02  0.6195E+03
  10.070  0.2927E+02  0.2927E+02  0.6201E+03
  10.080  0.2813E+02  0.2813E+02  0.6207E+03
  10.090  0.2752E+02  0.2752E+02  0.6212E+03
  10.100  0.2553E+02  0.2553E+02  0.6218E+03
  10.110  0.2413E+02  0.2413E+02  0.6223E+03
  10.120  0.2376E+02  0.2376E+02  0.6227E+03
  10.130  0.2410E+02  0.2410E+02  0.6232E+03
  10.140  0.2617E+02  0.2617E+02  0.6237E+03
  10.150  0.3074E+02  0.3074E+02  0.6243E+03
  10.160  0.3012E+02  0.3012E+02  0.6249E+03
  10.170  0.2809E+02  0.2809E+02  0.6255E+03
  10.180  0.2898E+02  0.2898E+02  0.6260E+03
  10.190  0.3139E+02  0.3139E+02  0.6267E+03
  10.200  0.3048E+02  0.3048E+02  0.6273E+03
  10.210  0.2882E+02  0.2882E+02  0.6279E+03
  10.220  0.2745E+02  0.2745E+02  0.6284E+03
  10.230  0.2548E+02  0.2548E+02  0.6290E+03
  10.240  0.2087E+02  0.2087E+02  0.6294E+03
  10.250  0.2013E+02  0.2013E+02  0.6298E+03
  10.260  0.1976E+02  0.1976E+02  0.6302E+03
  10.270  0.1981E+02  0.1981E+02  0.6306E+03
  10.280  0.2174E+02  0.2174E+02  0.6311E+03
  10.290  0.2435E+02  0.2435E+02  0.6315E+03
  10.300  0.2632E+02  0.2632E+02  0.6321E+03
  10.310  0.2575E+02  0.2575E+02  0.6326E+03
  10.320  0.2628E+02  0.2628E+02  0.6331E+03
  10.330  0.2639E+02  0.2639E+02  0.6336E+03
  10.340  0.2548E+02  0.2548E+02  0.6341E+03
  10.350  0.2573E+02  0.2573E+02  0.6347E+03
  10.360  0.2300E+02  0.2300E+02  0.6351E+03
  10.370  0.2054E+02  0.2054E+02  0.6356E+03
  10.380  0.1762E+02  0.1762E+02  0.6360E+03
  10.390  0.1534E+02  0.1534E+02  0.6363E+03
  10.400  0.1388E+02  0.1388E+02  0.6366E+03
  10.410  0.1292E+02  0.1292E+02  0.6368E+03
  10.420  0.1261E+02  0.1261E+02  0.6371E+03
  10.430  0.1247E+02  0.1247E+02  0.6374E+03
  10.440  0.1188E+02  0.1188E+02  0.6376E+03
  10.450  0.1226E+02  0.1226E+02  0.6378E+03
  10.460  0.1367E+02  0.1367E+02  0.6381E+03
  10.470  0.1585E+02  0.1585E+02  0.6384E+03
  10.480  0.1896E+02  0.1896E+02  0.6387E+03
  10.490  0.2054E+02  0.2054E+02  0.6391E+03
  10.500  0.2103E+02  0.2103E+02  0.6395E+03
  10.510  0.2060E+02  0.2060E+02  0.6400E+03
  10.520  0.2046E+02  0.2046E+02  0.6404E+03
  10.530  0.2170E+02  0.2170E+02  0.6408E+03
  10.540  0.2161E+02  0.2161E+02  0.6412E+03
  10.550  0.2084E+02  0.2084E+02  0.6417E+03
  10.560  0.1998E+02  0.1998E+02  0.6421E+03
  10.570  0.1910E+02  0.1910E+02  0.6425E+03
  10.580  0.1824E+02  0.1824E+02  0.6428E+03
  10.590  0.1762E+02  0.1762E+02  0.6432E+03
  10.600  0.1680E+02  0.1680E+02  0.6435E+03
  10.610  0.1620E+02  0.1620E+02  0.6439E+03
  10.620  0.1592E+02  0.1592E+02  0.6442E+03
  10.630  0.1573E+02  0.1573E+02  0.6445E+03
  10.640  0.1562E+02  0.1562E+02  0.6448E+03
  10.650  0.1544E+02  0.1544E+02  0.6451E+03
  10.660  0.1507E+02  0.1507E+02  0.6454E+03
  10.670  0.1469E+02  0.1469E+02  0.6457E+03
  10.680  0.1452E+02  0.1452E+02  0.6460E+03
  10.690  0.1455E+02  0.1455E+02  0.6463E+03
  10.700  0.1526E+02  0.1526E+02  0.6466E+03
  10.710  0.1392E+02  0.1392E+02  0.6469E+03
  10.720  0.1306E+02  0.1306E+02  0.6472E+03
  10.730  0.1273E+02  0.1273E+02  0.6474E+03
  10.740  0.1274E+02  0.1274E+02  0.6477E+03
  10.750  0.1295E+02  0.1295E+02  0.6480E+03
  10.760  0.1349E+02  0.1349E+02  0.6482E+03
  10.770  0.1297E+02  0.1297E+02  0.6485E+03
  10.780  0.1314E+02  0.1314E+02  0.6487E+03
  10.790  0.1333E+02  0.1333E+02  0.6490E+03
  10.800  0.1412E+02  0.1412E+02  0.6493E+03
  10.810  0.1577E+02  0.1577E+02  0.6496E+03
  10.820  0.1571E+02  0.1571E+02  0.6499E+03
  10.830  0.1369E+02  0.1369E+02  0.6502E+03
  10.840  0.1155E+02  0.1155E+02  0.6505E+03
  10.850  0.1004E+02  0.1004E+02  0.6507E+03
  10.860  0.9817E+01  0.9817E+01  0.6509E+03
  10.870  0.9780E+01  0.9780E+01  0.6511E+03
  10.880  0.9860E+01  0.9860E+01  0.6513E+03
  10.890  0.1010E+02  0.1010E+02  0.6515E+03
  10.900  0.1062E+02  0.1062E+02  0.6517E+03
  10.910  0.1170E+02  0.1170E+02  0.6519E+03
  10.920  0.1433E+02  0.1433E+02  0.6521E+03
  10.930  0.1821E+02  0.1821E+02  0.6525E+03
  10.940  0.1964E+02  0.1964E+02  0.6529E+03
  10.950  0.1941E+02  0.1941E+02  0.6533E+03
  10.960  0.1612E+02  0.1612E+02  0.6536E+03
  10.970  0.1415E+02  0.1415E+02  0.6539E+03
  10.980  0.1368E+02  0.1368E+02  0.6542E+03
  10.990  0.1344E+02  0.1344E+02  0.6545E+03
  11.000  0.1325E+02  0.1325E+02  0.6547E+03
  11.010  0.1314E+02  0.1314E+02  0.6550E+03
  11.020  0.1302E+02  0.1302E+02  0.6553E+03
  11.030  0.1283E+02  0.1283E+02  0.6555E+03
  11.040  0.1281E+02  0.1281E+02  0.6558E+03
  11.050  0.1349E+02  0.1349E+02  0.6560E+03
  11.060  0.1409E+02  0.1409E+02  0.6563E+03
  11.070  0.1313E+02  0.1313E+02  0.6566E+03
  11.080  0.1263E+02  0.1263E+02  0.6568E+03
  11.090  0.1222E+02  0.1222E+02  0.6571E+03
  11.100  0.1182E+02  0.1182E+02  0.6573E+03
  11.110  0.1154E+02  0.1154E+02  0.6576E+03
  11.120  0.1163E+02  0.1163E+02  0.6578E+03
  11.130  0.1175E+02  0.1175E+02  0.6580E+03
  11.140  0.1150E+02  0.1150E+02  0.6583E+03
  11.150  0.1106E+02  0.1106E+02  0.6585E+03
  11.160  0.1067E+02  0.1067E+02  0.6587E+03
  11.170  0.1048E+02  0.1048E+02  0.6589E+03
  11.180  0.1027E+02  0.1027E+02  0.6591E+03
  11.190  0.9937E+01  0.9937E+01  0.6593E+03
  11.200  0.9652E+01  0.9652E+01  0.6595E+03
  11.210  0.9582E+01  0.9582E+01  0.6597E+03
  11.220  0.9695E+01  0.9695E+01  0.6599E+03
  11.230  0.9978E+01  0.9978E+01  0.6601E+03
  11.240  0.1017E+02  0.1017E+02  0.6603E+03
  11.250  0.1035E+02  0.1035E+02  0.6605E+03
  11.260  0.1053E+02  0.1053E+02  0.6607E+03
  11.270  0.1228E+02  0.1228E+02  0.6609E+03
  11.280  0.1196E+02  0.1196E+02  0.6612E+03
  11.290  0.1253E+02  0.1253E+02  0.6614E+03
  11.300  0.1302E+02  0.1302E+02  0.6617E+03
  11.310  0.1347E+02  0.1347E+02  0.6619E+03
  11.320  0.1391E+02  0.1391E+02  0.6622E+03
  11.330  0.1425E+02  0.1425E+02  0.6625E+03
  11.340  0.1458E+02  0.1458E+02  0.6628E+03
  11.350  0.1492E+02  0.1492E+02  0.6631E+03
  11.360  0.1528E+02  0.1528E+02  0.6634E+03
  11.370  0.1564E+02  0.1564E+02  0.6637E+03
  11.380  0.1600E+02  0.1600E+02  0.6640E+03
  11.390  0.1647E+02  0.1647E+02  0.6643E+03
  11.400  0.1749E+02  0.1749E+02  0.6647E+03
  11.410  0.1935E+02  0.1935E+02  0.6650E+03
  11.420  0.2190E+02  0.2190E+02  0.6655E+03
  11.430  0.2390E+02  0.2390E+02  0.6659E+03
  11.440  0.2446E+02  0.2446E+02  0.6664E+03
  11.450  0.2570E+02  0.2570E+02  0.6669E+03
  11.460  0.3327E+02  0.3327E+02  0.6675E+03
  11.470  0.3065E+02  0.3065E+02  0.6682E+03
  11.480  0.2850E+02  0.2850E+02  0.6687E+03
  11.490  0.2772E+02  0.2772E+02  0.6693E+03
  11.500  0.2756E+02  0.2756E+02  0.6698E+03
  11.510  0.2844E+02  0.2844E+02  0.6704E+03
  11.520  0.2823E+02  0.2823E+02  0.6710E+03
  11.530  0.3015E+02  0.3015E+02  0.6716E+03
  11.540  0.2931E+02  0.2931E+02  0.6722E+03
  11.550  0.2685E+02  0.2685E+02  0.6727E+03
  11.560  0.2401E+02  0.2401E+02  0.6732E+03
  11.570  0.2313E+02  0.2313E+02  0.6737E+03
  11.580  0.2371E+02  0.2371E+02  0.6742E+03
  11.590  0.2521E+02  0.2521E+02  0.6747E+03
  11.600  0.2688E+02  0.2688E+02  0.6752E+03
  11.610  0.2795E+02  0.2795E+02  0.6757E+03
  11.620  0.2879E+02  0.2879E+02  0.6763E+03
  11.630  0.2965E+02  0.2965E+02  0.6769E+03
  11.640  0.3044E+02  0.3044E+02  0.6775E+03
  11.650  0.2924E+02  0.2924E+02  0.6781E+03
  11.660  0.2451E+02  0.2451E+02  0.6787E+03
  11.670  0.2406E+02  0.2406E+02  0.6791E+03
  11.680  0.2388E+02  0.2388E+02  0.6796E+03
  11.690  0.2384E+02  0.2384E+02  0.6801E+03
  11.700  0.2383E+02  0.2383E+02  0.6806E+03
  11.710  0.2410E+02  0.2410E+02  0.6810E+03
  11.720  0.2648E+02  0.2648E+02  0.6815E+03
  11.730  0.2783E+02  0.2783E+02  0.6821E+03
  11.740  0.2501E+02  0.2501E+02  0.6826E+03
  11.750  0.2503E+02  0.2503E+02  0.6831E+03
  11.760  0.2538E+02  0.2538E+02  0.6836E+03
  11.770  0.2223E+02  0.2223E+02  0.6841E+03
  11.780  0.2140E+02  0.2140E+02  0.6845E+03
  11.790  0.2085E+02  0.2085E+02  0.6850E+03
  11.800  0.2059E+02  0.2059E+02  0.6854E+03
  11.810  0.2103E+02  0.2103E+02  0.6858E+03
  11.820  0.2186E+02  0.2186E+02  0.6862E+03
  11.830  0.2298E+02  0.2298E+02  0.6867E+03
  11.840  0.2340E+02  0.2340E+02  0.6871E+03
  11.850  0.2238E+02  0.2238E+02  0.6876E+03
  11.860  0.2086E+02  0.2086E+02  0.6880E+03
  11.870  0.1609E+02  0.1609E+02  0.6884E+03
  11.880  0.1275E+02  0.1275E+02  0.6887E+03
  11.890  0.1137E+02  0.1137E+02  0.6889E+03
  11.900  0.1062E+02  0.1062E+02  0.6891E+03
  11.910  0.9974E+01  0.9974E+01  0.6893E+03
  11.920  0.9408E+01  0.9408E+01  0.6895E+03
  11.930  0.8917E+01  0.8917E+01  0.6897E+03
  11.940  0.8493E+01  0.8493E+01  0.6899E+03
  11.950  0.8112E+01  0.8112E+01  0.6901E+03
  11.960  0.7779E+01  0.7779E+01  0.6902E+03
  11.970  0.7472E+01  0.7472E+01  0.6904E+03
  11.980  0.7169E+01  0.7169E+01  0.6905E+03
  11.990  0.6913E+01  0.6913E+01  0.6907E+03
  12.000  0.6709E+01  0.6709E+01  0.6908E+03
